File: docs/examples/XAS/Echem/Operando2/Cell3_Buffers/HAC_NH3_01_02_GCPL_C04.mpt
EC-Lab ASCII FILE
Nb header lines : 80

Galvanostatic Cycling with Potential Limitation

Run on channel : 4 (SN 52456)
User :
CE vs. WE compliance from -10 V to 10 V
Electrode connection : standard
Potential control : Ewe
Ewe ctrl range : min = 0.00 V, max = 3.00 V
Safety Limits :
	Do not start on E overload
Acquisition started on : 12/12/2025 12:28:57.704
Technique started on : 12/12/2025 13:45:46.211
Loaded Setting File :  L:\projects\cycle2025-II\20250340369-skhabazian\EC_lab\20251211.EMD.mps
Saved on :
	File : HAC_NH3_01_02_GCPL_C04.mpr
	Directory : L:\projects\cycle2025-II\20250340369-skhabazian\EC_lab\Cell3_Buffers\
	Host : 84.89.228.57
Device : VSP (SN 2155)
Address : 10.0.48.130
EC-LAB for windows v11.61 (software)
Internet server v11.61 (firmware)
Command interpretor v11.61 (firmware)
Electrode material :
Initial state :
Electrolyte :
Comments :
Mass of active material : 0.001 mg
 at x = 0.000
Molecular weight of active material (at x = 0) : 0.001 g/mol
Atomic weight of intercalated ion : 0.001 g/mol
Acquisition started at : xo = 0.000
Number of e- transfered per intercalated ion : 1
for DX = 1, DQ = 26.802 mA.h
Battery capacity : 0.000 A.h
Electrode surface area : 0.000 cm²
Characteristic mass : 0.001 g
Volume (V) : 0.001 cm³
Text export
   Mode : Standard
   Time format : Absolute MMDDYYYY
Cycle Definition : Charge/Discharge alternance
Ns                  0                   1                   2
Set I/C             I                   I                   I
Is                  0.000               300.000             -300.000
unit Is             mA                  µA                  µA
vs.                 <None>              <None>              <None>
N                   1.00                1.00                1.00
I sign              > 0                 > 0                 > 0
t1 (h:m:s)          0:00:0.0000         4:00:0.0000         10:00:0.0000
I Range             1 mA                1 mA                1 mA
Bandwidth           5                   5                   5
dE1 (mV)            0.00                0.00                0.00
dt1 (s)             0.0000              2.0000              2.0000
EM (V)              0.000               2.200               0.900
tM (h:m:s)          0:00:0.0000         0:00:0.0000         0:00:0.0000
Im                  0.000               0.000               0.000
unit Im             mA                  mA                  mA
dI/dt               0.000               0.000               0.000
dunit dI/dt         mA/s                mA/s                mA/s
E range min (V)     0.000               0.000               0.000
E range max (V)     3.000               3.000               3.000
dq                  0.000               1.000               1.000
unit dq             A.h                 A.h                 A.h
dtq (s)             0.0000              120.0000            120.0000
dQM                 0.000               0.000               0.000
unit dQM            mA.h                mA.h                mA.h
dxM                 0.000               0.000               0.000
delta SoC (%)       pass                pass                pass
tR (h:m:s)          0:01:0.0000         0:00:0.0000         0:00:0.0000
dER/dt (mV/h)       0.0                 0.1                 0.1
dER (mV)            0.00                0.00                0.00
dtR (s)             1.0000              120.0000            120.0000
EL (V)              pass                pass                pass
goto Ns'            0                   0                   1
nc cycles           0                   0                   100

mode	ox/red	error	control changes	Ns changes	counter inc.	Ns	time/s	dq/mA.h	(Q-Qo)/mA.h	control/V/mA	Ewe/V	I Range	Q charge/discharge/mA.h	half cycle	Energy we charge/W.h	Energy we discharge/W.h	Capacitance charge/µF	Capacitance discharge/µF	step time/s	<I>/mA	x	Q discharge/mA.h	Q charge/mA.h	Capacity/mA.h	Efficiency/%	control/V	control/mA	cycle number	Pwe/W	Rwe/Ohm
3	0	0	1	0	0	0	12/12/2025 13:45:46.2109	0.000000000000000E+000	0.000000000000000E+000	0.0000000E+000	1.24877	14	0.000000000000000E+000	0	0.000000000000000E+000	0.000000000000000E+000	0.000000000000000E+000	0.000000000000000E+000	4608.51	0.000000000000000E+000	0.000000000000000E+000	0.000000000000000E+000	0.000000000000000E+000	0.000000000000000E+000	0.0000000E+000	0.0000000E+000	0.0000000E+000	0.000000000000000E+000	0.0000000E+000	0.0000000E+000
3	0	0	1	0	0	0	12/12/2025 13:46:27.2109	0.000000000000000E+000	0.000000000000000E+000	0.0000000E+000	1.24896	14	0.000000000000000E+000	0	0.000000000000000E+000	0.000000000000000E+000	0.000000000000000E+000	0.000000000000000E+000	4649.51	0.000000000000000E+000	0.000000000000000E+000	0.000000000000000E+000	0.000000000000000E+000	0.000000000000000E+000	0.0000000E+000	0.0000000E+000	0.0000000E+000	0.000000000000000E+000	0.0000000E+000	0.0000000E+000
1	1	0	0	0	0	1	12/12/2025 13:47:28.2111	0.000166724	0.00350134	0.3	1.61876	12	0.00350134	0	5.6527e-06	0.000000000000000E+000	41263.7	0.000000000000000E+000	4710.51	0.300104	-0.00013064	0.000000000000000E+000	0.00350134	0.00350134	0.0000000E+000	0.0000000E+000	0.3	0.000000000000000E+000	0.000485795	5393.99
1	1	0	0	0	0	1	12/12/2025 13:48:50.2111	0.000166719	0.0103369	0.3	1.63901	12	0.0103369	0	1.67968e-05	0.000000000000000E+000	114247	0.000000000000000E+000	4792.51	0.300095	-0.000385684	0.000000000000000E+000	0.0103369	0.0103369	0.0000000E+000	0.0000000E+000	0.3	0.000000000000000E+000	0.000491858	5461.64
1	1	0	0	0	0	1	12/12/2025 13:50:12.2111	0.00016672	0.0171724	0.3	1.65244	12	0.0171724	0	2.8049e-05	0.000000000000000E+000	182282	0.000000000000000E+000	4874.51	0.300096	-0.000640726	0.000000000000000E+000	0.0171724	0.0171724	0.0000000E+000	0.0000000E+000	0.3	0.000000000000000E+000	0.00049589	5506.35
1	1	0	0	0	0	1	12/12/2025 13:51:34.2111	0.000166719	0.0240079	0.3	1.66323	12	0.0240079	0	3.9386e-05	0.000000000000000E+000	246979	0.000000000000000E+000	4956.51	0.300094	-0.000895768	0.000000000000000E+000	0.0240079	0.0240079	0.0000000E+000	0.0000000E+000	0.3	0.000000000000000E+000	0.000499125	5542.36
1	1	0	0	0	0	1	12/12/2025 13:52:56.2111	0.000166719	0.0308434	0.3	1.6729	12	0.0308434	0	5.07968e-05	0.000000000000000E+000	308767	0.000000000000000E+000	5038.51	0.300094	-0.00115081	0.000000000000000E+000	0.0308434	0.0308434	0.0000000E+000	0.0000000E+000	0.3	0.000000000000000E+000	0.000502026	5574.59
1	1	0	0	0	0	1	12/12/2025 13:54:18.2111	0.000166719	0.0376789	0.3	1.68451	12	0.0376789	0	6.22749e-05	0.000000000000000E+000	365395	0.000000000000000E+000	5120.51	0.300095	-0.00140585	0.000000000000000E+000	0.0376789	0.0376789	0.0000000E+000	0.0000000E+000	0.3	0.000000000000000E+000	0.000505513	5613.27
1	1	0	0	0	0	1	12/12/2025 13:55:40.2111	0.00016672	0.0445144	0.3	1.69359	12	0.0445144	0	7.38214e-05	0.000000000000000E+000	421378	0.000000000000000E+000	5202.51	0.300096	-0.00166089	0.000000000000000E+000	0.0445144	0.0445144	0.0000000E+000	0.0000000E+000	0.3	0.000000000000000E+000	0.000508239	5643.5
1	1	0	0	0	0	1	12/12/2025 13:57:02.2111	0.000166719	0.0513498	0.3	1.70131	12	0.0513498	0	8.54226e-05	0.000000000000000E+000	476408	0.000000000000000E+000	5284.51	0.300095	-0.00191593	0.000000000000000E+000	0.0513498	0.0513498	0.0000000E+000	0.0000000E+000	0.3	0.000000000000000E+000	0.000510555	5669.26
1	1	0	0	0	0	1	12/12/2025 13:58:24.2111	0.000166719	0.0581853	0.3	1.71009	12	0.0581853	0	9.70808e-05	0.000000000000000E+000	527891	0.000000000000000E+000	5366.51	0.300095	-0.00217097	0.000000000000000E+000	0.0581853	0.0581853	0.0000000E+000	0.0000000E+000	0.3	0.000000000000000E+000	0.000513188	5698.48
1	1	0	0	0	0	1	12/12/2025 13:59:46.2111	0.000166718	0.0650208	0.3	1.71722	12	0.0650208	0	0.000108793	0.000000000000000E+000	579490	0.000000000000000E+000	5448.51	0.300092	-0.00242601	0.000000000000000E+000	0.0650208	0.0650208	0.0000000E+000	0.0000000E+000	0.3	0.000000000000000E+000	0.000515324	5722.3
1	1	0	0	0	0	1	12/12/2025 14:01:08.2111	0.000166718	0.0718563	0.3	1.71903	12	0.0718563	0	0.00012054	0.000000000000000E+000	637551	0.000000000000000E+000	5530.51	0.300092	-0.00268105	0.000000000000000E+000	0.0718563	0.0718563	0.0000000E+000	0.0000000E+000	0.3	0.000000000000000E+000	0.000515868	5728.34
1	1	0	0	0	0	1	12/12/2025 14:02:30.2111	0.000166717	0.0786917	0.3	1.7336	12	0.0786917	0	0.000132336	0.000000000000000E+000	673996	0.000000000000000E+000	5612.51	0.30009	-0.00293609	0.000000000000000E+000	0.0786917	0.0786917	0.0000000E+000	0.0000000E+000	0.3	0.000000000000000E+000	0.000520236	5776.94
1	1	0	0	0	0	1	12/12/2025 14:03:52.2111	0.000166718	0.0855272	0.3	1.74893	12	0.0855272	0	0.000144244	0.000000000000000E+000	706759	0.000000000000000E+000	5694.51	0.300093	-0.00319113	0.000000000000000E+000	0.0855272	0.0855272	0.0000000E+000	0.0000000E+000	0.3	0.000000000000000E+000	0.000524842	5827.98
1	1	0	0	0	0	1	12/12/2025 14:05:14.2111	0.000166719	0.0923627	0.3	1.75914	12	0.0923627	0	0.000156234	0.000000000000000E+000	745779	0.000000000000000E+000	5776.51	0.300094	-0.00344618	0.000000000000000E+000	0.0923627	0.0923627	0.0000000E+000	0.0000000E+000	0.3	0.000000000000000E+000	0.000527906	5861.95
1	1	0	0	0	0	1	12/12/2025 14:06:36.2111	0.000166718	0.0991981	0.3	1.77033	12	0.0991981	0	0.000168297	0.000000000000000E+000	781353	0.000000000000000E+000	5858.51	0.300093	-0.00370121	0.000000000000000E+000	0.0991981	0.0991981	0.0000000E+000	0.0000000E+000	0.3	0.000000000000000E+000	0.000531264	5899.28
1	1	0	0	0	0	1	12/12/2025 14:07:58.2111	0.000166719	0.106034	0.3	1.78223	12	0.106034	0	0.000180439	0.000000000000000E+000	813999	0.000000000000000E+000	5940.51	0.300093	-0.00395625	0.000000000000000E+000	0.106034	0.106034	0.0000000E+000	0.0000000E+000	0.3	0.000000000000000E+000	0.000534836	5938.92
1	1	0	0	0	0	1	12/12/2025 14:09:20.2111	0.000166717	0.112869	0.3	1.79417	12	0.112869	0	0.000192663	0.000000000000000E+000	844962	0.000000000000000E+000	6022.51	0.300091	-0.00421129	0.000000000000000E+000	0.112869	0.112869	0.0000000E+000	0.0000000E+000	0.3	0.000000000000000E+000	0.000538414	5978.75
1	1	0	0	0	0	1	12/12/2025 14:10:42.2111	0.000166716	0.119704	0.3	1.80807	12	0.119704	0	0.000204974	0.000000000000000E+000	870954	0.000000000000000E+000	6104.51	0.300089	-0.00446633	0.000000000000000E+000	0.119704	0.119704	0.0000000E+000	0.0000000E+000	0.3	0.000000000000000E+000	0.000542582	6025.12
1	1	0	0	0	0	1	12/12/2025 14:12:04.2111	0.000166715	0.12654	0.3	1.83763	12	0.12654	0	0.000217494	0.000000000000000E+000	868784	0.000000000000000E+000	6186.51	0.300088	-0.00472137	0.000000000000000E+000	0.12654	0.12654	0.0000000E+000	0.0000000E+000	0.3	0.000000000000000E+000	0.000551451	6123.65
1	1	0	0	0	0	1	12/12/2025 14:13:26.2111	0.000166717	0.133375	0.3	1.85106	12	0.133375	0	0.000230063	0.000000000000000E+000	892853	0.000000000000000E+000	6268.51	0.300091	-0.00497641	0.000000000000000E+000	0.133375	0.133375	0.0000000E+000	0.0000000E+000	0.3	0.000000000000000E+000	0.000555485	6168.33
1	1	0	0	0	0	1	12/12/2025 14:14:48.2111	0.000166719	0.140211	0.3	1.88628	12	0.140211	0	0.000242846	0.000000000000000E+000	880912	0.000000000000000E+000	6350.51	0.300093	-0.00523145	0.000000000000000E+000	0.140211	0.140211	0.0000000E+000	0.0000000E+000	0.3	0.000000000000000E+000	0.000566061	6285.65
1	1	0	0	0	0	1	12/12/2025 14:16:10.2111	0.000166718	0.147046	0.3	1.91657	12	0.147046	0	0.000255843	0.000000000000000E+000	877480	0.000000000000000E+000	6432.51	0.300092	-0.00548649	0.000000000000000E+000	0.147046	0.147046	0.0000000E+000	0.0000000E+000	0.3	0.000000000000000E+000	0.000575146	6386.59
1	1	0	0	0	0	1	12/12/2025 14:17:32.2111	0.000166716	0.153882	0.3	1.96373	12	0.153882	0	0.000269107	0.000000000000000E+000	851688	0.000000000000000E+000	6514.51	0.30009	-0.00574153	0.000000000000000E+000	0.153882	0.153882	0.0000000E+000	0.0000000E+000	0.3	0.000000000000000E+000	0.000589294	6543.8
1	1	0	0	0	0	1	12/12/2025 14:18:54.2111	0.000166715	0.160717	0.3	2.02643	12	0.160717	0	0.000282728	0.000000000000000E+000	811307	0.000000000000000E+000	6596.51	0.300087	-0.00599657	0.000000000000000E+000	0.160717	0.160717	0.0000000E+000	0.0000000E+000	0.3	0.000000000000000E+000	0.000608106	6752.82
1	1	0	0	0	0	1	12/12/2025 14:20:16.2111	0.000166714	0.167552	0.3	2.11242	12	0.167552	0	0.00029686	0.000000000000000E+000	754800	0.000000000000000E+000	6678.51	0.300085	-0.0062516	0.000000000000000E+000	0.167552	0.167552	0.0000000E+000	0.0000000E+000	0.3	0.000000000000000E+000	0.000633907	7039.41
1	0	0	1	0	0	2	12/12/2025 14:21:34.0675	-0.000166649	0.170042	-0.3	1.46222	12	-0.00199983	1	0.000306541	3.01174e-06	698300	14165	24	-0.299969	-0.00634448	0.00199983	0.000000000000000E+000	0.00199983	0.0000000E+000	0.0000000E+000	-0.3	0.000000000000000E+000	-0.000438622	4874.58
1	0	0	1	0	0	2	12/12/2025 14:22:56.0675	-0.000166647	0.163209	-0.3	1.38693	12	-0.0088324	1	0.000306541	1.27196e-05	698300	54488.9	106	-0.299965	-0.00608955	0.0088324	0.000000000000000E+000	0.0088324	0.0000000E+000	0.0000000E+000	-0.3	0.000000000000000E+000	-0.00041603	4623.65
1	0	0	1	0	0	2	12/12/2025 14:24:18.0675	-0.000166646	0.156377	-0.3	1.3284	12	-0.0156649	1	0.000306541	2.19837e-05	698300	87830.8	188	-0.299963	-0.00583462	0.0156649	0.000000000000000E+000	0.0156649	0.0000000E+000	0.0000000E+000	-0.3	0.000000000000000E+000	-0.000398472	4428.56
1	0	0	1	0	0	2	12/12/2025 14:25:40.0675	-0.000166647	0.149544	-0.3	1.27706	12	-0.0224974	1	0.000306541	3.08784e-05	698300	116800	270	-0.299965	-0.00557969	0.0224974	0.000000000000000E+000	0.0224974	0.0000000E+000	0.0000000E+000	-0.3	0.000000000000000E+000	-0.000383075	4257.38
1	0	0	1	0	0	2	12/12/2025 14:27:02.0675	-0.000166649	0.142712	-0.3	1.21909	12	-0.02933	1	0.000306541	3.9407e-05	698300	140524	352	-0.299968	-0.00532476	0.02933	0.000000000000000E+000	0.02933	0.0000000E+000	0.0000000E+000	-0.3	0.000000000000000E+000	-0.000365688	4064.07
1	0	0	1	0	0	2	12/12/2025 14:28:24.0675	-0.000166649	0.135879	-0.3	1.15125	12	-0.0361626	1	0.000306541	4.7508e-05	698300	158914	434	-0.299967	-0.00506982	0.0361626	0.000000000000000E+000	0.0361626	0.0000000E+000	0.0000000E+000	-0.3	0.000000000000000E+000	-0.000345339	3837.93
1	0	0	1	0	0	2	12/12/2025 14:29:15.6587	-0.000132586	0.13158	-0.3	1.0883	12	-0.0404614	1	0.000306541	5.23179e-05	698300	165116	485.591	-0.299969	-0.00490943	0.0404614	0.000000000000000E+000	0.0404614	0.0000000E+000	0.0000000E+000	-0.3	0.000000000000000E+000	-0.000326457	3628.05