File: docs/examples/XAS/Echem/Operando2/Cell3_Buffers/HAC_NH3_01_01_OCV_C04.mpt
EC-Lab ASCII FILE
Nb header lines : 53

Open Circuit Voltage

Run on channel : 4 (SN 52456)
User :
CE vs. WE compliance from -10 V to 10 V
Electrode connection : standard
Potential control : Ewe
Ewe ctrl range : min = 0.00 V, max = 3.00 V
Safety Limits :
	Do not start on E overload
Acquisition started on : 12/12/2025 12:28:57.704
Technique started on : 12/12/2025 12:28:58.204
Loaded Setting File :  L:\projects\cycle2025-II\20250340369-skhabazian\EC_lab\20251211.EMD.mps
Saved on :
	File : HAC_NH3_01_01_OCV_C04.mpr
	Directory : L:\projects\cycle2025-II\20250340369-skhabazian\EC_lab\Cell3_Buffers\
	Host : 84.89.228.57
Device : VSP (SN 2155)
Address : 10.0.48.130
EC-LAB for windows v11.61 (software)
Internet server v11.61 (firmware)
Command interpretor v11.61 (firmware)
Electrode material :
Initial state :
Electrolyte :
Comments :
Mass of active material : 0.001 mg
 at x = 0.000
Molecular weight of active material (at x = 0) : 0.001 g/mol
Atomic weight of intercalated ion : 0.001 g/mol
Acquisition started at : xo = 0.000
Number of e- transfered per intercalated ion : 1
for DX = 1, DQ = 26.802 mA.h
Battery capacity : 0.000 A.h
Electrode surface area : 0.000 cm²
Characteristic mass : 0.001 g
Volume (V) : 0.001 cm³
Text export
   Mode : Standard
   Time format : Absolute MMDDYYYY
Cycle Definition : Charge/Discharge alternance
tR (h:m:s)          20:00:30.0000
dER/dt (mV/h)       0.0
record              <Ewe>
dER (mV)            0.00
dtR (s)             0.5000
E range min (V)     0.000
E range max (V)     3.000

mode	error	time/s	<Ewe/V>
3	0	12/12/2025 12:28:58.2040	1.24927
3	0	12/12/2025 12:29:15.7040	1.24928
3	0	12/12/2025 12:29:33.2040	1.24929
3	0	12/12/2025 12:29:50.7040	1.24928
3	0	12/12/2025 12:30:08.2040	1.24928
3	0	12/12/2025 12:30:25.7040	1.24928
3	0	12/12/2025 12:30:43.2040	1.24928
3	0	12/12/2025 12:31:00.7040	1.24929
3	0	12/12/2025 12:31:18.2040	1.24928
3	0	12/12/2025 12:31:35.7040	1.24928
3	0	12/12/2025 12:31:53.2040	1.24928
3	0	12/12/2025 12:32:10.7040	1.24928
3	0	12/12/2025 12:32:28.2040	1.24927
3	0	12/12/2025 12:32:45.7040	1.24928
3	0	12/12/2025 12:33:03.2040	1.24927
3	0	12/12/2025 12:33:20.7040	1.24926
3	0	12/12/2025 12:33:38.2040	1.24926
3	0	12/12/2025 12:33:55.7040	1.24926
3	0	12/12/2025 12:34:13.2040	1.24926
3	0	12/12/2025 12:34:30.7040	1.24926
3	0	12/12/2025 12:34:48.2040	1.24926
3	0	12/12/2025 12:35:05.7040	1.24925
3	0	12/12/2025 12:35:23.2040	1.24925
3	0	12/12/2025 12:35:40.7040	1.24925
3	0	12/12/2025 12:35:58.2040	1.24924
3	0	12/12/2025 12:36:15.7040	1.24924
3	0	12/12/2025 12:36:33.2040	1.24924
3	0	12/12/2025 12:36:50.7040	1.24923
3	0	12/12/2025 12:37:08.2040	1.24923
3	0	12/12/2025 12:37:25.7040	1.24923
3	0	12/12/2025 12:37:43.2040	1.24923
3	0	12/12/2025 12:38:00.7040	1.24922
3	0	12/12/2025 12:38:18.2040	1.24922
3	0	12/12/2025 12:38:35.7040	1.24923
3	0	12/12/2025 12:38:53.2040	1.24923
3	0	12/12/2025 12:39:10.7040	1.24923
3	0	12/12/2025 12:39:28.2040	1.24922
3	0	12/12/2025 12:39:45.7040	1.24922
3	0	12/12/2025 12:40:03.2040	1.24922
3	0	12/12/2025 12:40:20.7040	1.24922
3	0	12/12/2025 12:40:38.2040	1.24925
3	0	12/12/2025 12:40:55.7040	1.2493
3	0	12/12/2025 12:41:13.2040	1.24932
3	0	12/12/2025 12:41:30.7040	1.24932
3	0	12/12/2025 12:41:48.2040	1.24931
3	0	12/12/2025 12:42:05.7040	1.24929
3	0	12/12/2025 12:42:23.2040	1.24927
3	0	12/12/2025 12:42:40.7040	1.24925
3	0	12/12/2025 12:42:58.2040	1.24923
3	0	12/12/2025 12:43:15.7040	1.24921
3	0	12/12/2025 12:43:33.2040	1.2492
3	0	12/12/2025 12:43:50.7040	1.24918
3	0	12/12/2025 12:44:08.2040	1.24916
3	0	12/12/2025 12:44:25.7040	1.24913
3	0	12/12/2025 12:44:43.2040	1.24912
3	0	12/12/2025 12:45:00.7040	1.2491
3	0	12/12/2025 12:45:18.2040	1.24908
3	0	12/12/2025 12:45:35.7040	1.24906
3	0	12/12/2025 12:45:53.2040	1.24905
3	0	12/12/2025 12:46:10.7040	1.24902
3	0	12/12/2025 12:46:28.2040	1.24901
3	0	12/12/2025 12:46:45.7040	1.24899
3	0	12/12/2025 12:47:03.2040	1.24897
3	0	12/12/2025 12:47:20.7040	1.24896
3	0	12/12/2025 12:47:38.2040	1.24895
3	0	12/12/2025 12:47:55.7040	1.24893
3	0	12/12/2025 12:48:13.2040	1.24891
3	0	12/12/2025 12:48:30.7040	1.2489
3	0	12/12/2025 12:48:48.2040	1.2489
3	0	12/12/2025 12:49:05.7040	1.24887
3	0	12/12/2025 12:49:23.2040	1.24885
3	0	12/12/2025 12:49:40.7040	1.24884
3	0	12/12/2025 12:49:58.2040	1.24883
3	0	12/12/2025 12:50:15.7040	1.2488
3	0	12/12/2025 12:50:33.2040	1.24879
3	0	12/12/2025 12:50:50.7040	1.24878
3	0	12/12/2025 12:51:08.2040	1.24876
3	0	12/12/2025 12:51:25.7040	1.24875
3	0	12/12/2025 12:51:43.2040	1.24873
3	0	12/12/2025 12:52:00.7040	1.24872
3	0	12/12/2025 12:52:18.2040	1.2487
3	0	12/12/2025 12:52:35.7040	1.24868
3	0	12/12/2025 12:52:53.2040	1.24866
3	0	12/12/2025 12:53:10.7040	1.24864
3	0	12/12/2025 12:53:28.2040	1.24863
3	0	12/12/2025 12:53:45.7040	1.24861
3	0	12/12/2025 12:54:03.2040	1.2486
3	0	12/12/2025 12:54:20.7040	1.24859
3	0	12/12/2025 12:54:38.2040	1.24857
3	0	12/12/2025 12:54:55.7040	1.24856
3	0	12/12/2025 12:55:13.2040	1.24854
3	0	12/12/2025 12:55:30.7040	1.24853
3	0	12/12/2025 12:55:48.2040	1.24852
3	0	12/12/2025 12:56:05.7040	1.2485
3	0	12/12/2025 12:56:23.2040	1.24848
3	0	12/12/2025 12:56:40.7040	1.24847
3	0	12/12/2025 12:56:58.2040	1.24846
3	0	12/12/2025 12:57:15.7040	1.24844
3	0	12/12/2025 12:57:33.2040	1.24843
3	0	12/12/2025 12:57:50.7040	1.24842
3	0	12/12/2025 12:58:08.2040	1.2484
3	0	12/12/2025 12:58:25.7040	1.24839
3	0	12/12/2025 12:58:43.2040	1.24837
3	0	12/12/2025 12:59:00.7040	1.24836
3	0	12/12/2025 12:59:18.2040	1.24835
3	0	12/12/2025 12:59:35.7040	1.24833
3	0	12/12/2025 12:59:53.2040	1.24832
3	0	12/12/2025 13:00:10.7040	1.2483
3	0	12/12/2025 13:00:28.2040	1.24829
3	0	12/12/2025 13:00:45.7040	1.24828
3	0	12/12/2025 13:01:03.2040	1.24826
3	0	12/12/2025 13:01:20.7040	1.24825
3	0	12/12/2025 13:01:38.2040	1.24824
3	0	12/12/2025 13:01:55.7039	1.24823
3	0	12/12/2025 13:02:13.2039	1.24821
3	0	12/12/2025 13:02:30.7039	1.2482
3	0	12/12/2025 13:02:48.2039	1.24818
3	0	12/12/2025 13:03:05.7039	1.24816
3	0	12/12/2025 13:03:23.2039	1.24815
3	0	12/12/2025 13:03:40.7039	1.24814
3	0	12/12/2025 13:03:58.2039	1.24813
3	0	12/12/2025 13:04:15.7039	1.24812
3	0	12/12/2025 13:04:33.2039	1.24811
3	0	12/12/2025 13:04:50.7039	1.2481
3	0	12/12/2025 13:05:08.2039	1.24808
3	0	12/12/2025 13:05:25.7039	1.24807
3	0	12/12/2025 13:05:43.2039	1.24806
3	0	12/12/2025 13:06:00.7039	1.24804
3	0	12/12/2025 13:06:18.2039	1.24803
3	0	12/12/2025 13:06:35.7039	1.24801
3	0	12/12/2025 13:06:53.2039	1.248
3	0	12/12/2025 13:07:10.7039	1.24799
3	0	12/12/2025 13:07:28.2039	1.24797
3	0	12/12/2025 13:07:45.7039	1.24796
3	0	12/12/2025 13:08:03.2039	1.24795
3	0	12/12/2025 13:08:20.7039	1.24794
3	0	12/12/2025 13:08:38.2039	1.24792
3	0	12/12/2025 13:08:55.7039	1.24791
3	0	12/12/2025 13:09:13.2039	1.2479
3	0	12/12/2025 13:09:30.7039	1.24789
3	0	12/12/2025 13:09:48.2039	1.24788
3	0	12/12/2025 13:10:05.7039	1.24786
3	0	12/12/2025 13:10:23.2039	1.24785
3	0	12/12/2025 13:10:40.7039	1.24784
3	0	12/12/2025 13:10:58.2039	1.24783
3	0	12/12/2025 13:11:15.7039	1.24781
3	0	12/12/2025 13:11:33.2039	1.2478
3	0	12/12/2025 13:11:50.7039	1.24778
3	0	12/12/2025 13:12:08.2039	1.24778
3	0	12/12/2025 13:12:25.7039	1.24776
3	0	12/12/2025 13:12:43.2039	1.24775
3	0	12/12/2025 13:13:00.7039	1.24774
3	0	12/12/2025 13:13:18.2039	1.24773
3	0	12/12/2025 13:13:35.7039	1.24772
3	0	12/12/2025 13:13:53.2039	1.24772
3	0	12/12/2025 13:14:10.7039	1.24772
3	0	12/12/2025 13:14:28.2039	1.24772
3	0	12/12/2025 13:14:45.7039	1.24772
3	0	12/12/2025 13:15:03.2039	1.24773
3	0	12/12/2025 13:15:20.7039	1.24773
3	0	12/12/2025 13:15:38.2039	1.24774
3	0	12/12/2025 13:15:55.7039	1.24775
3	0	12/12/2025 13:16:13.2039	1.24778
3	0	12/12/2025 13:16:30.7039	1.2478
3	0	12/12/2025 13:16:48.2039	1.24784
3	0	12/12/2025 13:17:05.7039	1.24788
3	0	12/12/2025 13:17:23.2039	1.24793
3	0	12/12/2025 13:17:40.7039	1.24799
3	0	12/12/2025 13:17:58.2039	1.24803
3	0	12/12/2025 13:18:15.7039	1.24807
3	0	12/12/2025 13:18:33.2039	1.2481
3	0	12/12/2025 13:18:50.7039	1.24812
3	0	12/12/2025 13:19:08.2039	1.24813
3	0	12/12/2025 13:19:25.7039	1.24815
3	0	12/12/2025 13:19:43.2039	1.24815
3	0	12/12/2025 13:20:00.7039	1.24815
3	0	12/12/2025 13:20:18.2039	1.24815
3	0	12/12/2025 13:20:35.7039	1.24814
3	0	12/12/2025 13:20:53.2039	1.24814
3	0	12/12/2025 13:21:10.7039	1.24813
3	0	12/12/2025 13:21:28.2039	1.24812
3	0	12/12/2025 13:21:45.7039	1.24812
3	0	12/12/2025 13:22:03.2039	1.24812
3	0	12/12/2025 13:22:20.7039	1.24811
3	0	12/12/2025 13:22:38.2039	1.2481
3	0	12/12/2025 13:22:55.7039	1.24808
3	0	12/12/2025 13:23:13.2039	1.24808
3	0	12/12/2025 13:23:30.7039	1.24808
3	0	12/12/2025 13:23:48.2039	1.24807
3	0	12/12/2025 13:24:05.7039	1.24807
3	0	12/12/2025 13:24:23.2039	1.24808
3	0	12/12/2025 13:24:40.7039	1.24808
3	0	12/12/2025 13:24:58.2039	1.2481
3	0	12/12/2025 13:25:15.7039	1.24811
3	0	12/12/2025 13:25:33.2039	1.24814
3	0	12/12/2025 13:25:50.7039	1.24818
3	0	12/12/2025 13:26:08.2039	1.24823
3	0	12/12/2025 13:26:25.7039	1.24828
3	0	12/12/2025 13:26:43.2039	1.24833
3	0	12/12/2025 13:27:00.7039	1.24839
3	0	12/12/2025 13:27:18.2039	1.24843
3	0	12/12/2025 13:27:35.7039	1.24847
3	0	12/12/2025 13:27:53.2039	1.2485
3	0	12/12/2025 13:28:10.7039	1.24853
3	0	12/12/2025 13:28:28.2039	1.24856
3	0	12/12/2025 13:28:45.7039	1.24856
3	0	12/12/2025 13:29:03.2039	1.24857
3	0	12/12/2025 13:29:20.7039	1.24858
3	0	12/12/2025 13:29:38.2039	1.24858
3	0	12/12/2025 13:29:55.7039	1.24858
3	0	12/12/2025 13:30:13.2039	1.24857
3	0	12/12/2025 13:30:30.7039	1.24857
3	0	12/12/2025 13:30:48.2039	1.24857
3	0	12/12/2025 13:31:05.7039	1.24856
3	0	12/12/2025 13:31:23.2039	1.24855
3	0	12/12/2025 13:31:40.7039	1.24855
3	0	12/12/2025 13:31:58.2039	1.24855
3	0	12/12/2025 13:32:15.7039	1.24854
3	0	12/12/2025 13:32:33.2039	1.24853
3	0	12/12/2025 13:32:50.7039	1.24852
3	0	12/12/2025 13:33:08.2039	1.24852
3	0	12/12/2025 13:33:25.7039	1.24852
3	0	12/12/2025 13:33:43.2039	1.24851
3	0	12/12/2025 13:34:00.7039	1.24852
3	0	12/12/2025 13:34:18.2039	1.24853
3	0	12/12/2025 13:34:35.7039	1.24855
3	0	12/12/2025 13:34:53.2039	1.24857
3	0	12/12/2025 13:35:10.7039	1.2486
3	0	12/12/2025 13:35:28.2039	1.24863
3	0	12/12/2025 13:35:45.7039	1.24867
3	0	12/12/2025 13:36:03.2039	1.2487
3	0	12/12/2025 13:36:20.7039	1.24872
3	0	12/12/2025 13:36:38.2039	1.24875
3	0	12/12/2025 13:36:55.7039	1.24876
3	0	12/12/2025 13:37:13.2039	1.24878
3	0	12/12/2025 13:37:30.7039	1.24879
3	0	12/12/2025 13:37:48.2039	1.2488
3	0	12/12/2025 13:38:05.7039	1.24881
3	0	12/12/2025 13:38:23.2039	1.24881
3	0	12/12/2025 13:38:40.7039	1.2488
3	0	12/12/2025 13:38:58.2039	1.24881
3	0	12/12/2025 13:39:15.7039	1.2488
3	0	12/12/2025 13:39:33.2039	1.24879
3	0	12/12/2025 13:39:50.7039	1.24879
3	0	12/12/2025 13:40:08.2039	1.24879
3	0	12/12/2025 13:40:25.7039	1.24878
3	0	12/12/2025 13:40:43.2039	1.24877
3	0	12/12/2025 13:41:00.7039	1.24876
3	0	12/12/2025 13:41:18.2039	1.24876
3	0	12/12/2025 13:41:35.7039	1.24874
3	0	12/12/2025 13:41:53.2039	1.24874
3	0	12/12/2025 13:42:10.7039	1.24873
3	0	12/12/2025 13:42:28.2039	1.24872
3	0	12/12/2025 13:42:45.7039	1.24871
3	0	12/12/2025 13:43:03.2039	1.2487
3	0	12/12/2025 13:43:20.7039	1.24869
3	0	12/12/2025 13:43:38.2039	1.2487
3	0	12/12/2025 13:43:55.7039	1.2487
3	0	12/12/2025 13:44:13.2039	1.2487
3	0	12/12/2025 13:44:30.7039	1.24872
3	0	12/12/2025 13:44:48.2039	1.24874
3	0	12/12/2025 13:45:05.7039	1.24877
3	0	12/12/2025 13:45:23.2039	1.2488
3	0	12/12/2025 13:45:40.7039	1.24884
3	0	12/12/2025 13:45:46.2103	1.24886