File: docs/examples/XAS/Echem/Operando2/Cell3_Buffers/HAC_NH3_02_01_OCV_C04.mpt
EC-Lab ASCII FILE
Nb header lines : 53

Open Circuit Voltage

Run on channel : 4 (SN 52456)
User :
CE vs. WE compliance from -10 V to 10 V
Electrode connection : standard
Potential control : Ewe
Ewe ctrl range : min = 0.00 V, max = 3.00 V
Safety Limits :
	Do not start on E overload
Acquisition started on : 12/12/2025 14:30:15.519
Technique started on : 12/12/2025 14:30:16.019
Loaded Setting File :  L:\projects\cycle2025-II\20250340369-skhabazian\EC_lab\20251211.EMD.mps
Saved on :
	File : HAC_NH3_02_01_OCV_C04.mpr
	Directory : L:\projects\cycle2025-II\20250340369-skhabazian\EC_lab\Cell3_Buffers\
	Host : 84.89.228.57
Device : VSP (SN 2155)
Address : 10.0.48.130
EC-LAB for windows v11.61 (software)
Internet server v11.61 (firmware)
Command interpretor v11.61 (firmware)
Electrode material :
Initial state :
Electrolyte :
Comments :
Mass of active material : 0.001 mg
 at x = 0.000
Molecular weight of active material (at x = 0) : 0.001 g/mol
Atomic weight of intercalated ion : 0.001 g/mol
Acquisition started at : xo = 0.000
Number of e- transfered per intercalated ion : 1
for DX = 1, DQ = 26.802 mA.h
Battery capacity : 0.000 A.h
Electrode surface area : 0.000 cm²
Characteristic mass : 0.001 g
Volume (V) : 0.001 cm³
Text export
   Mode : Standard
   Time format : Absolute MMDDYYYY
Cycle Definition : Charge/Discharge alternance
tR (h:m:s)          20:00:30.0000
dER/dt (mV/h)       0.0
record              <Ewe>
dER (mV)            0.00
dtR (s)             0.5000
E range min (V)     0.000
E range max (V)     3.000

mode	error	time/s	<Ewe/V>
3	0	12/12/2025 14:30:16.0190	1.408
3	0	12/12/2025 14:30:16.5190	1.40842
3	0	12/12/2025 14:30:17.0190	1.40884
3	0	12/12/2025 14:30:17.5190	1.40925
3	0	12/12/2025 14:30:18.0190	1.40966
3	0	12/12/2025 14:30:18.5190	1.41006
3	0	12/12/2025 14:30:19.0190	1.41047
3	0	12/12/2025 14:30:19.5190	1.41087
3	0	12/12/2025 14:30:20.0190	1.41126
3	0	12/12/2025 14:30:20.5190	1.41165
3	0	12/12/2025 14:30:21.0190	1.41204
3	0	12/12/2025 14:30:21.5190	1.41241
3	0	12/12/2025 14:30:22.0190	1.4128
3	0	12/12/2025 14:30:22.5190	1.41317
3	0	12/12/2025 14:30:23.0190	1.41354
3	0	12/12/2025 14:30:23.5190	1.41391
3	0	12/12/2025 14:30:24.0190	1.41427
3	0	12/12/2025 14:30:24.5190	1.41463
3	0	12/12/2025 14:30:25.0190	1.41499
3	0	12/12/2025 14:30:25.5190	1.41536
3	0	12/12/2025 14:30:26.0190	1.4157
3	0	12/12/2025 14:30:26.5190	1.41605
3	0	12/12/2025 14:30:27.0190	1.4164
3	0	12/12/2025 14:30:27.5190	1.41674
3	0	12/12/2025 14:30:28.0190	1.41708
3	0	12/12/2025 14:30:28.5190	1.41742
3	0	12/12/2025 14:30:29.0190	1.41776
3	0	12/12/2025 14:30:29.5190	1.41808
3	0	12/12/2025 14:30:30.0190	1.41841
3	0	12/12/2025 14:30:30.5190	1.41874
3	0	12/12/2025 14:30:31.0190	1.41906
3	0	12/12/2025 14:30:31.5190	1.41937
3	0	12/12/2025 14:30:32.0190	1.41969
3	0	12/12/2025 14:30:32.5190	1.42001
3	0	12/12/2025 14:30:32.6188	1.42019