File: docs/examples/XRD/IS17_D/Echem/B/ZMO_D2_C03.txt
EC-Lab ASCII FILE
Nb header lines : 83

Galvanostatic Cycling with Potential Limitation

Run on channel : 3 (SN 37153)
User :
CE vs. WE compliance from -10 V to 10 V
Electrode connection : standard
Potential control : Ewe
Ewe ctrl range : min = 0.00 V, max = 5.00 V
Safety Limits :
	Do not start on E overload
Acquisition started on : 09/23/2025 20:36:45.375
Loaded Setting File :  L:\projects\cycle2025-II\20250340008-atejeroplaza\DATA\elChem\16_FC_NP47_fresh_4p3V_C16_cell22.mps
Saved on :
	File : ZMO_D2_C03.mpr
	Directory : L:\projects\cycle2025-II\20250340211-lsimonelli\DATA\elchem\
	Host : 84.89.224.156
Device : VSP (SN 1760)
Address : 10.0.48.120
EC-LAB for windows v11.61 (software)
Internet server v11.61 (firmware)
Command interpretor v11.61 (firmware)
Electrode material : NMF111_FC
Initial state : x=1
Electrolyte : NaPF6 ECDEC
Comments : Cell: MSPD_06
Comments : N/P 0.47
Comments : aged 100 cycles 4.3V
Comments : mAM=6.504mg
Mass of active material : 6.504 mg
 at x = 1.000
Molecular weight of active material (at x = 0) : 87.930 g/mol
Atomic weight of intercalated ion : 22.990 g/mol
Acquisition started at : xo = 1.000
Number of e- transfered per intercalated ion : 1
for DX = 1, DQ = 1.572 mA.h
Battery capacity : 1.572 mA.h
Electrode surface area : 1.000 cm²
Characteristic mass : 6.504 mg
Volume (V) : 0.001 cm³
Record Ece
Text export
   Mode : Standard
   Time format : Elapsed
Cycle Definition : Charge/Discharge alternance
Ns                  0                   1                   2
Set I/C             I                   I                   I
Is                  0.000               -30.000             30.000
unit Is             mA                  µA                  µA
vs.                 <None>              <None>              <None>
N                   1.00                16.10               16.10
I sign              > 0                 < 0                 < 0
t1 (h:m:s)          0:00:0.0000         10:00:0.0000        10:00:0.0000
I Range             100 µA              100 µA              100 µA
Bandwidth           5                   5                   5
dE1 (mV)            0.00                0.00                0.00
dt1 (s)             0.00                10.00               10.00
EM (V)              0.000               0.900               1.800
tM (h:m:s)          0:00:0.0000         0:00:0.0000         0:00:0.0000
Im                  0.000               0.000               0.000
unit Im             mA                  mA                  mA
dI/dt               0.000               0.000               0.000
dunit dI/dt         mA/s                mA/s                mA/s
E range min (V)     0.000               0.000               0.000
E range max (V)     5.000               5.000               5.000
dq                  0.000               1.000               1.000
unit dq             mA.h                mA.h                mA.h
dtq (s)             0.00                60.00               60.00
dQM                 0.000               0.000               0.000
unit dQM            mA.h                mA.h                mA.h
dxM                 0.000               0.000               0.000
delta SoC (%)       pass                pass                pass
tR (h:m:s)          100:00:10.0000      0:00:0.0000         0:00:0.0000
dER/dt (mV/h)       0.0                 0.0                 0.0
dER (mV)            0.00                0.00                0.00
dtR (s)             1.00                10.00               10.00
EL (V)              pass                pass                pass
goto Ns'            0                   1                   1
nc cycles           0                   0                   10

cycle number	time/s	Ewe/V	Ece/V	<I>/mA	Capacity/mA.h
0.000000000000000E+000	09/23/2025 20:36:45.3750	1.40587	4.83599e-05	0.000000000000000E+000	0.000000000000000E+000
0.000000000000000E+000	09/23/2025 20:40:29.2886	1.35525	0.000162939	-0.0300518	0.00116864
0.000000000000000E+000	09/23/2025 20:56:49.2886	1.32237	6.74564e-05	-0.0300532	0.00934975
0.000000000000000E+000	09/23/2025 21:13:09.2885	1.27626	0.000143843	-0.0300531	0.017531
0.000000000000000E+000	09/23/2025 21:29:29.2885	1.1105	-8.92964e-06	-0.0300553	0.0257125
1	09/23/2025 21:45:20.3581	1.48056	2.92634e-05	0.0299647	0.00141502
1	09/23/2025 22:01:40.3581	1.46809	-2.80262e-05	0.0299655	0.00957223
1	09/23/2025 22:18:00.3581	1.47078	0.000105649	0.0299656	0.0177295
1	09/23/2025 22:34:20.3581	1.47275	8.6553e-05	0.0299652	0.0258868
1	09/23/2025 22:50:40.3580	1.47393	4.83599e-05	0.0299658	0.0340441
1	09/23/2025 23:07:00.3580	1.47516	0.000124746	0.0299655	0.0422015
1	09/23/2025 23:23:20.3580	1.47628	-8.92964e-06	0.029966	0.0503588
1	09/23/2025 23:39:40.3580	1.47783	0.000105649	0.0299657	0.0585161
1	09/23/2025 23:56:00.3580	1.47899	0.000105649	0.029966	0.0666735
1	09/24/2025 00:12:20.3580	1.48018	-4.71227e-05	0.0299657	0.0748309
1	09/24/2025 00:28:40.3580	1.48199	8.6553e-05	0.0299648	0.0829883
1	09/24/2025 00:45:00.3580	1.48598	-8.92964e-06	0.0299662	0.0911457
1	09/24/2025 01:01:20.3580	1.49471	0.000162939	0.029967	0.0993032
1	09/24/2025 01:17:40.3579	1.51557	1.01669e-05	0.0299666	0.107461
1	09/24/2025 01:34:00.3579	1.5323	2.92634e-05	0.0299655	0.115618
1	09/24/2025 01:50:20.3579	1.54341	-8.92964e-06	0.0299655	0.123775
1	09/24/2025 02:06:40.3579	1.55252	2.92634e-05	0.0299656	0.131933
1	09/24/2025 02:23:00.3579	1.55929	0.000143843	0.0299658	0.14009
1	09/24/2025 02:39:20.3579	1.56477	2.92634e-05	0.0299652	0.148247
1	09/24/2025 02:55:40.3579	1.56931	0.000105649	0.0299655	0.156404
1	09/24/2025 03:12:00.3579	1.57386	8.6553e-05	0.0299654	0.164562
1	09/24/2025 03:28:20.3578	1.58018	-2.80262e-05	0.0299656	0.172719
1	09/24/2025 03:44:40.3578	1.59284	1.01669e-05	0.029966	0.180876
1	09/24/2025 04:01:00.3578	1.62191	0.000182036	0.0299652	0.189034
1	09/24/2025 04:17:20.3578	1.654	0.000143843	0.0299656	0.197191
1	09/24/2025 04:33:40.3578	1.68274	2.92634e-05	0.029965	0.205348
1	09/24/2025 04:50:00.3578	1.70766	0.000201132	0.0299652	0.213505
1	09/24/2025 05:06:20.3578	1.72881	6.74564e-05	0.0299658	0.221663
1	09/24/2025 05:22:40.3578	1.74846	1.01669e-05	0.0299653	0.22982
1	09/24/2025 05:39:00.3578	1.76765	-8.92964e-06	0.0299656	0.237977
1	09/24/2025 05:55:20.3578	1.78295	0.000182036	0.029965	0.246134
1	09/24/2025 06:11:40.3578	1.79372	0.000182036	0.0299644	0.254292
1	09/24/2025 06:27:32.8518	1.76013	-8.92964e-06	-0.0300548	0.00141929
1	09/24/2025 06:43:52.8518	1.64571	-8.53157e-05	-0.0300548	0.00960092
1	09/24/2025 07:00:12.8518	1.56916	-6.62192e-05	-0.0300553	0.0177826
1	09/24/2025 07:16:32.8518	1.51872	-2.80262e-05	-0.0300559	0.0259645
1	09/24/2025 07:32:52.8518	1.48249	0.000162939	-0.0300558	0.0341463
1	09/24/2025 07:49:12.8518	1.4543	0.000105649	-0.0300555	0.0423281
1	09/24/2025 08:05:32.8518	1.43241	1.01669e-05	-0.0300548	0.0505097
1	09/24/2025 08:21:52.8518	1.41704	2.92634e-05	-0.0300556	0.0586915
1	09/24/2025 08:38:12.8518	1.4073	0.000105649	-0.0300554	0.0668734
1	09/24/2025 08:54:32.8518	1.39849	8.6553e-05	-0.0300553	0.0750552
1	09/24/2025 09:10:52.8518	1.38902	0.000162939	-0.0300548	0.0832369
1	09/24/2025 09:27:12.8518	1.37821	-4.71227e-05	-0.0300543	0.0914185
1	09/24/2025 09:43:32.8518	1.36444	0.000143843	-0.0300542	0.0995999
1	09/24/2025 09:59:52.8518	1.34731	-6.62192e-05	-0.0300549	0.107781
1	09/24/2025 10:16:12.8518	1.32775	4.83599e-05	-0.0300551	0.115963
1	09/24/2025 10:32:32.8518	1.30787	-4.71227e-05	-0.0300556	0.124145
1	09/24/2025 10:48:52.8518	1.32735	1.01669e-05	-0.0300559	0.132327
1	09/24/2025 11:05:12.8518	1.33367	2.92634e-05	-0.0300552	0.140508
1	09/24/2025 11:21:32.8518	1.33304	8.6553e-05	-0.0300555	0.14869
1	09/24/2025 11:37:52.8518	1.33039	4.83599e-05	-0.0300554	0.156872
1	09/24/2025 11:54:12.8518	1.32638	8.6553e-05	-0.0300549	0.165054
1	09/24/2025 12:10:32.8518	1.32088	6.74564e-05	-0.0300556	0.173236
1	09/24/2025 12:26:52.8518	1.31329	-2.80262e-05	-0.0300552	0.181417
1	09/24/2025 12:43:12.8518	1.30247	-4.71227e-05	-0.0300554	0.189599
1	09/24/2025 12:59:32.8518	1.28648	1.01669e-05	-0.0300562	0.197781
1	09/24/2025 13:15:52.8518	1.26423	0.000124746	-0.0300557	0.205963
1	09/24/2025 13:32:12.8518	1.25548	1.01669e-05	-0.0300553	0.214144
1	09/24/2025 13:48:32.8518	1.24165	6.74564e-05	-0.0300548	0.222326
1	09/24/2025 14:04:52.8518	1.19633	8.6553e-05	-0.0300545	0.230508
1	09/24/2025 14:21:12.8518	1.08098	6.74564e-05	-0.0300553	0.238689
2	09/24/2025 14:37:09.2064	1.48554	0.000105649	0.0299653	0.00108208
2	09/24/2025 14:53:29.2115	1.47363	2.92634e-05	0.0299648	0.00923929
2	09/24/2025 15:09:49.2309	1.47372	0.000124746	0.0299653	0.0173966
2	09/24/2025 15:26:09.2503	1.47412	6.74564e-05	0.0299659	0.025554
2	09/24/2025 15:42:29.2697	1.4742	8.6553e-05	0.0299652	0.0337115
2	09/24/2025 15:58:49.2890	1.4741	1.01669e-05	0.0299655	0.0418688
2	09/24/2025 16:15:09.3084	1.47462	0.000182036	0.0299658	0.0500263
2	09/24/2025 16:31:29.3278	1.47577	0.000143843	0.0299656	0.0581839
2	09/24/2025 16:47:49.3471	1.47699	-8.92964e-06	0.0299653	0.0663412
2	09/24/2025 17:04:09.3665	1.47836	2.92634e-05	0.0299647	0.0744985
2	09/24/2025 17:20:29.3859	1.48077	0.000143843	0.0299642	0.0826557
2	09/24/2025 17:36:49.4052	1.48404	6.74564e-05	0.0299662	0.090813
2	09/24/2025 17:53:09.4246	1.48833	0.000162939	0.0299665	0.0989708
2	09/24/2025 18:09:29.4440	1.49614	6.74564e-05	0.0299673	0.107129
2	09/24/2025 18:25:49.4633	1.51352	8.6553e-05	0.0299678	0.115287
2	09/24/2025 18:42:09.4827	1.53027	0.000143843	0.0299657	0.123444
2	09/24/2025 18:58:29.5021	1.54036	8.6553e-05	0.0299656	0.131602
2	09/24/2025 19:14:49.5214	1.5475	4.83599e-05	0.0299657	0.139759
2	09/24/2025 19:31:09.5408	1.55338	0.000105649	0.0299646	0.147917
2	09/24/2025 19:47:29.5602	1.5581	6.74564e-05	0.0299642	0.156074
2	09/24/2025 20:03:49.5795	1.56265	0.000143843	0.0299644	0.164231
2	09/24/2025 20:20:09.5989	1.56658	-6.62192e-05	0.0299644	0.172388
2	09/24/2025 20:36:29.6183	1.5712	0.000124746	0.0299647	0.180545
2	09/24/2025 20:52:49.6376	1.57707	0.000201132	0.0299653	0.188703
2	09/24/2025 21:09:09.6570	1.58788	8.6553e-05	0.029966	0.19686
2	09/24/2025 21:25:29.6764	1.61232	0.000105649	0.0299657	0.205018
2	09/24/2025 21:41:49.6958	1.6403	0.000162939	0.0299657	0.213175
2	09/24/2025 21:58:09.7151	1.66345	0.000105649	0.0299659	0.221333
2	09/24/2025 22:14:29.7345	1.6835	0.000105649	0.0299664	0.22949
2	09/24/2025 22:30:49.7539	1.70214	-8.92964e-06	0.0299664	0.237648
2	09/24/2025 22:47:09.7732	1.71947	1.01669e-05	0.0299645	0.245805
2	09/24/2025 23:03:29.7926	1.7361	0.000124746	0.0299651	0.253963
2	09/24/2025 23:19:49.8120	1.75449	2.92634e-05	0.0299653	0.26212
2	09/24/2025 23:36:09.8313	1.77355	0.000124746	0.0299654	0.270277
2	09/24/2025 23:52:29.8507	1.78988	0.000201132	0.029965	0.278435
2	09/25/2025 00:08:26.7653	1.77719	0.000143843	-0.0300557	0.000500941
2	09/25/2025 00:24:46.7846	1.66	-6.62192e-05	-0.0300566	0.00868302
2	09/25/2025 00:41:06.8040	1.58681	0.000124746	-0.0300572	0.0168653
2	09/25/2025 00:57:26.8234	1.53962	6.74564e-05	-0.0300563	0.0250474
2	09/25/2025 01:13:46.8427	1.50636	-8.92964e-06	-0.0300544	0.0332293
2	09/25/2025 01:30:06.8621	1.47884	0.000124746	-0.0300557	0.0414112
2	09/25/2025 01:46:26.8815	1.45487	0.000105649	-0.0300559	0.0495933
2	09/25/2025 02:02:46.9008	1.43406	2.92634e-05	-0.0300557	0.0577753
2	09/25/2025 02:19:06.9202	1.41828	1.01669e-05	-0.0300546	0.0659571
2	09/25/2025 02:35:26.9396	1.40757	6.74564e-05	-0.0300557	0.0741389
2	09/25/2025 02:51:46.9590	1.39849	2.92634e-05	-0.0300555	0.0823208
2	09/25/2025 03:08:06.9783	1.39	8.6553e-05	-0.030056	0.0905029
2	09/25/2025 03:24:26.9977	1.38129	4.83599e-05	-0.0300542	0.0986846
2	09/25/2025 03:40:47.0171	1.37053	0.000105649	-0.0300541	0.106866
2	09/25/2025 03:57:07.0364	1.35604	2.92634e-05	-0.0300555	0.115048
2	09/25/2025 04:13:27.0558	1.33734	2.92634e-05	-0.0300561	0.12323
2	09/25/2025 04:29:47.0752	1.31622	-8.53157e-05	-0.0300556	0.131412
2	09/25/2025 04:46:07.0945	1.29952	-8.92964e-06	-0.0300552	0.139594
2	09/25/2025 05:02:27.1139	1.31203	0.000143843	-0.0300559	0.147776
2	09/25/2025 05:18:47.1333	1.30936	-8.92964e-06	-0.0300555	0.155958
2	09/25/2025 05:35:07.1526	1.2992	-6.62192e-05	-0.0300556	0.16414
2	09/25/2025 05:51:27.1720	1.28375	6.74564e-05	-0.0300556	0.172322
2	09/25/2025 06:07:47.1914	1.26948	-2.80262e-05	-0.0300544	0.180503
2	09/25/2025 06:24:07.2107	1.26524	0.000124746	-0.0300555	0.188685
2	09/25/2025 06:40:27.2301	1.25113	8.6553e-05	-0.0300561	0.196867
2	09/25/2025 06:56:47.2495	1.22859	-8.92964e-06	-0.0300554	0.205049
2	09/25/2025 07:13:07.2688	1.17391	0.000105649	-0.0300553	0.213231
2	09/25/2025 07:29:27.2882	1.11069	0.000124746	-0.0300552	0.221413
2	09/25/2025 07:45:47.3076	0.992225	0.000105649	-0.0300535	0.229595
3	09/25/2025 08:01:39.8554	1.47989	-2.80262e-05	0.0299642	0.00374567
3	09/25/2025 08:17:59.8747	1.47689	6.74564e-05	0.0299649	0.0119028
3	09/25/2025 08:34:19.8941	1.47666	1.01669e-05	0.0299651	0.0200601
3	09/25/2025 08:50:39.9135	1.47716	0.000162939	0.0299647	0.0282173
3	09/25/2025 09:06:59.9260	1.47764	6.74564e-05	0.0299658	0.0363745
3	09/25/2025 09:23:19.9261	1.47791	4.83599e-05	0.0299644	0.0445317
3	09/25/2025 09:39:39.9263	1.47865	8.6553e-05	0.0299645	0.0526886
3	09/25/2025 09:55:59.9264	1.4805	-4.71227e-05	0.0299634	0.0608455
3	09/25/2025 10:12:19.9266	1.48343	8.6553e-05	0.029966	0.0690028
3	09/25/2025 10:28:39.9267	1.48719	8.6553e-05	0.0299663	0.0771602
3	09/25/2025 10:44:59.9269	1.4925	0.000124746	0.0299667	0.0853177
3	09/25/2025 11:01:19.9270	1.50336	0.000124746	0.0299663	0.0934751
3	09/25/2025 11:17:39.9272	1.52208	1.01669e-05	0.0299661	0.101633
3	09/25/2025 11:33:59.9273	1.53448	4.83599e-05	0.0299664	0.10979
3	09/25/2025 11:50:19.9275	1.54231	1.01669e-05	0.0299661	0.117948
3	09/25/2025 12:06:39.9276	1.54846	0.000105649	0.0299661	0.126105
3	09/25/2025 12:17:03.9423	1.5521	1.01669e-05	0.0299654	0.1313