File: docs/examples/XRD/IS17_D/Echem/B/ZMO_D_C03.txt
EC-Lab ASCII FILE
Nb header lines : 91

Galvanostatic Cycling with Potential Limitation

Run on channel : 3 (SN 37153)
User :
CE vs. WE compliance from -10 V to 10 V
Electrode connection : standard
Potential control : Ewe
Ewe ctrl range : min = 0.00 V, max = 5.00 V
Safety Limits :
	Do not start on E overload
Acquisition started on : 09/23/2025 16:37:38.524
Loaded Setting File :  L:\projects\cycle2025-II\20250340008-atejeroplaza\DATA\elChem\16_FC_NP47_fresh_4p3V_C16_cell22.mps
Saved on :
	File : ZMO_D_C03.mpr
	Directory : L:\projects\cycle2025-II\20250340211-lsimonelli\DATA\elchem\
	Host : 84.89.224.156
Device : VSP (SN 1760)
Address : 10.0.48.120
EC-LAB for windows v11.61 (software)
Internet server v11.61 (firmware)
Command interpretor v11.61 (firmware)
Electrode material : NMF111_FC
Initial state : x=1
Electrolyte : NaPF6 ECDEC
Comments : Cell: MSPD_06
Comments : N/P 0.47
Comments : aged 100 cycles 4.3V
Comments : mAM=6.504mg
Mass of active material : 6.504 mg
 at x = 1.000
Molecular weight of active material (at x = 0) : 87.930 g/mol
Atomic weight of intercalated ion : 22.990 g/mol
Acquisition started at : xo = 1.000
Number of e- transfered per intercalated ion : 1
for DX = 1, DQ = 1.572 mA.h
Battery capacity : 1.572 mA.h
Electrode surface area : 1.000 cm²
Characteristic mass : 6.504 mg
Volume (V) : 0.001 cm³
Record Ece
Text export
   Mode : Standard
   Time format : Elapsed
Cycle Definition : Charge/Discharge alternance
Ns                  0                   1                   2
Set I/C             I                   I                   I
Is                  0.000               -100.000            100.000
unit Is             mA                  µA                  µA
vs.                 <None>              <None>              <None>
N                   1.00                16.10               16.10
I sign              > 0                 < 0                 < 0
t1 (h:m:s)          0:00:0.0000         10:00:0.0000        10:00:0.0000
I Range             100 µA              100 µA              100 µA
Bandwidth           5                   5                   5
dE1 (mV)            0.00                0.00                0.00
dt1 (s)             0.00                10.00               10.00
EM (V)              0.000               0.900               1.850
tM (h:m:s)          0:00:0.0000         0:00:0.0000         0:00:0.0000
Im                  0.000               0.000               0.000
unit Im             mA                  mA                  mA
dI/dt               0.000               0.000               0.000
dunit dI/dt         mA/s                mA/s                mA/s
E range min (V)     0.000               0.000               0.000
E range max (V)     5.000               5.000               5.000
dq                  0.000               1.000               1.000
unit dq             mA.h                mA.h                mA.h
dtq (s)             0.00                60.00               60.00
dQM                 0.000               0.000               0.000
unit dQM            mA.h                mA.h                mA.h
dxM                 0.000               0.000               0.000
delta SoC (%)       pass                pass                pass
tR (h:m:s)          100:00:10.0000      0:00:0.0000         0:00:0.0000
dER/dt (mV/h)       0.0                 0.0                 0.0
dER (mV)            0.00                0.00                0.00
dtR (s)             1.00                10.00               10.00
EL (V)              pass                pass                pass
goto Ns'            0                   1                   1
nc cycles           0                   0                   10

Modify on : 09/23/2025 17:13
Ns                  0                   1                   2
EM (V)                                                      1.800

Modify on : 09/23/2025 20:35
Ns                  0                   1                   2
Is                                      -30.000             30.000

cycle number	time/s	Ewe/V	Ece/V	<I>/mA	Capacity/mA.h
0.000000000000000E+000	09/23/2025 16:37:38.5240	1.52726	6.74564e-05	0.000000000000000E+000	0.000000000000000E+000
0.000000000000000E+000	09/23/2025 16:38:49.5240	1.52716	8.6553e-05	0.000000000000000E+000	0.000000000000000E+000
0.000000000000000E+000	09/23/2025 16:40:00.5240	1.52688	0.000162939	0.000000000000000E+000	0.000000000000000E+000
0.000000000000000E+000	09/23/2025 16:41:11.5240	1.52669	2.92634e-05	0.000000000000000E+000	0.000000000000000E+000
0.000000000000000E+000	09/23/2025 16:42:22.5240	1.52657	0.000124746	0.000000000000000E+000	0.000000000000000E+000
0.000000000000000E+000	09/23/2025 16:43:33.5240	1.5263	1.01669e-05	0.000000000000000E+000	0.000000000000000E+000
0.000000000000000E+000	09/23/2025 16:44:44.5240	1.526	0.000105649	0.000000000000000E+000	0.000000000000000E+000
0.000000000000000E+000	09/23/2025 16:45:55.5240	1.52575	-8.53157e-05	0.000000000000000E+000	0.000000000000000E+000
0.000000000000000E+000	09/23/2025 16:47:06.5240	1.52558	-0.000161702	0.000000000000000E+000	0.000000000000000E+000
0.000000000000000E+000	09/23/2025 16:48:17.5240	1.52537	8.6553e-05	0.000000000000000E+000	0.000000000000000E+000
0.000000000000000E+000	09/23/2025 16:49:28.5240	1.52518	8.6553e-05	0.000000000000000E+000	0.000000000000000E+000
0.000000000000000E+000	09/23/2025 16:50:39.5240	1.52487	1.01669e-05	0.000000000000000E+000	0.000000000000000E+000
0.000000000000000E+000	09/23/2025 16:51:50.5240	1.52483	2.92634e-05	0.000000000000000E+000	0.000000000000000E+000
0.000000000000000E+000	09/23/2025 16:53:01.5240	1.52457	2.92634e-05	0.000000000000000E+000	0.000000000000000E+000
0.000000000000000E+000	09/23/2025 16:54:12.5240	1.52426	-2.80262e-05	0.000000000000000E+000	0.000000000000000E+000
0.000000000000000E+000	09/23/2025 16:55:23.5240	1.52415	-8.53157e-05	0.000000000000000E+000	0.000000000000000E+000
0.000000000000000E+000	09/23/2025 16:56:34.5240	1.5239	0.000124746	0.000000000000000E+000	0.000000000000000E+000
0.000000000000000E+000	09/23/2025 16:57:45.5240	1.52369	4.83599e-05	0.000000000000000E+000	0.000000000000000E+000
0.000000000000000E+000	09/23/2025 16:58:56.5240	1.5235	2.92634e-05	0.000000000000000E+000	0.000000000000000E+000
0.000000000000000E+000	09/23/2025 17:00:07.5240	1.52336	-6.62192e-05	0.000000000000000E+000	0.000000000000000E+000
0.000000000000000E+000	09/23/2025 17:01:18.5240	1.52323	1.01669e-05	0.000000000000000E+000	0.000000000000000E+000
0.000000000000000E+000	09/23/2025 17:02:29.5240	1.52302	0.000105649	0.000000000000000E+000	0.000000000000000E+000
0.000000000000000E+000	09/23/2025 17:03:40.5240	1.52271	-6.62192e-05	0.000000000000000E+000	0.000000000000000E+000
0.000000000000000E+000	09/23/2025 17:04:51.5240	1.52256	2.92634e-05	0.000000000000000E+000	0.000000000000000E+000
0.000000000000000E+000	09/23/2025 17:06:02.5240	1.52243	-6.62192e-05	0.000000000000000E+000	0.000000000000000E+000
0.000000000000000E+000	09/23/2025 17:07:13.5240	1.5222	1.01669e-05	0.000000000000000E+000	0.000000000000000E+000
0.000000000000000E+000	09/23/2025 17:08:24.5240	1.52203	2.92634e-05	0.000000000000000E+000	0.000000000000000E+000
0.000000000000000E+000	09/23/2025 17:09:35.5240	1.52185	4.83599e-05	0.000000000000000E+000	0.000000000000000E+000
0.000000000000000E+000	09/23/2025 17:10:46.5239	1.52149	0.000143843	0.000000000000000E+000	0.000000000000000E+000
0.000000000000000E+000	09/23/2025 17:11:57.5239	1.52149	0.000105649	0.000000000000000E+000	0.000000000000000E+000
0.000000000000000E+000	09/23/2025 17:13:08.5239	1.52124	0.000143843	0.000000000000000E+000	0.000000000000000E+000
0.000000000000000E+000	09/23/2025 17:14:19.5239	1.52111	-8.92964e-06	0.000000000000000E+000	0.000000000000000E+000
0.000000000000000E+000	09/23/2025 17:15:30.5239	1.52078	0.000143843	0.000000000000000E+000	0.000000000000000E+000
0.000000000000000E+000	09/23/2025 17:16:41.5239	1.52059	0.000105649	0.000000000000000E+000	0.000000000000000E+000
0.000000000000000E+000	09/23/2025 17:17:52.5239	1.52063	8.6553e-05	0.000000000000000E+000	0.000000000000000E+000
0.000000000000000E+000	09/23/2025 17:19:03.5239	1.52031	0.000182036	0.000000000000000E+000	0.000000000000000E+000
0.000000000000000E+000	09/23/2025 17:20:14.5239	1.52006	-8.92964e-06	0.000000000000000E+000	0.000000000000000E+000
0.000000000000000E+000	09/23/2025 17:21:25.5239	1.51994	-2.80262e-05	0.000000000000000E+000	0.000000000000000E+000
0.000000000000000E+000	09/23/2025 17:22:36.5239	1.51981	1.01669e-05	0.000000000000000E+000	0.000000000000000E+000
0.000000000000000E+000	09/23/2025 17:23:47.5239	1.51968	0.000105649	0.000000000000000E+000	0.000000000000000E+000
0.000000000000000E+000	09/23/2025 17:24:58.5239	1.51931	-2.80262e-05	0.000000000000000E+000	0.000000000000000E+000
0.000000000000000E+000	09/23/2025 17:26:09.5239	1.51935	0.000162939	0.000000000000000E+000	0.000000000000000E+000
0.000000000000000E+000	09/23/2025 17:27:20.5239	1.51907	-2.80262e-05	0.000000000000000E+000	0.000000000000000E+000
0.000000000000000E+000	09/23/2025 17:28:31.5239	1.51905	8.6553e-05	0.000000000000000E+000	0.000000000000000E+000
0.000000000000000E+000	09/23/2025 17:29:42.5239	1.51884	-6.62192e-05	0.000000000000000E+000	0.000000000000000E+000
0.000000000000000E+000	09/23/2025 17:30:53.5239	1.51849	0.000105649	0.000000000000000E+000	0.000000000000000E+000
0.000000000000000E+000	09/23/2025 17:32:04.5239	1.51824	4.83599e-05	0.000000000000000E+000	0.000000000000000E+000
0.000000000000000E+000	09/23/2025 17:33:15.5239	1.51817	6.74564e-05	0.000000000000000E+000	0.000000000000000E+000
0.000000000000000E+000	09/23/2025 17:34:26.5239	1.51807	2.92634e-05	0.000000000000000E+000	0.000000000000000E+000
0.000000000000000E+000	09/23/2025 17:35:37.5239	1.5179	8.6553e-05	0.000000000000000E+000	0.000000000000000E+000
0.000000000000000E+000	09/23/2025 17:36:48.5239	1.51752	0.000124746	0.000000000000000E+000	0.000000000000000E+000
0.000000000000000E+000	09/23/2025 17:37:59.5239	1.51727	-8.92964e-06	0.000000000000000E+000	0.000000000000000E+000
0.000000000000000E+000	09/23/2025 17:39:10.5239	1.51721	-8.92964e-06	0.000000000000000E+000	0.000000000000000E+000
0.000000000000000E+000	09/23/2025 17:40:21.5239	1.51683	8.6553e-05	0.000000000000000E+000	0.000000000000000E+000
0.000000000000000E+000	09/23/2025 17:41:32.5239	1.51691	2.92634e-05	0.000000000000000E+000	0.000000000000000E+000
0.000000000000000E+000	09/23/2025 17:42:43.5239	1.51662	0.000162939	0.000000000000000E+000	0.000000000000000E+000
0.000000000000000E+000	09/23/2025 17:43:54.5239	1.51649	0.000162939	0.000000000000000E+000	0.000000000000000E+000
0.000000000000000E+000	09/23/2025 17:45:05.5239	1.51626	0.000105649	0.000000000000000E+000	0.000000000000000E+000
0.000000000000000E+000	09/23/2025 17:46:16.5239	1.51603	-8.92964e-06	0.000000000000000E+000	0.000000000000000E+000
0.000000000000000E+000	09/23/2025 17:47:27.5239	1.51591	-2.80262e-05	0.000000000000000E+000	0.000000000000000E+000
0.000000000000000E+000	09/23/2025 17:48:38.5239	1.51584	0.000105649	0.000000000000000E+000	0.000000000000000E+000
0.000000000000000E+000	09/23/2025 17:49:49.5239	1.51547	6.74564e-05	0.000000000000000E+000	0.000000000000000E+000
0.000000000000000E+000	09/23/2025 17:51:00.5239	1.51544	-8.92964e-06	0.000000000000000E+000	0.000000000000000E+000
0.000000000000000E+000	09/23/2025 17:52:11.5239	1.51523	-8.92964e-06	0.000000000000000E+000	0.000000000000000E+000
0.000000000000000E+000	09/23/2025 17:53:22.5239	1.51509	0.000162939	0.000000000000000E+000	0.000000000000000E+000
0.000000000000000E+000	09/23/2025 17:54:33.5239	1.51494	2.92634e-05	0.000000000000000E+000	0.000000000000000E+000
0.000000000000000E+000	09/23/2025 17:55:44.5239	1.51469	-2.80262e-05	0.000000000000000E+000	0.000000000000000E+000
0.000000000000000E+000	09/23/2025 17:56:55.5239	1.51456	-8.92964e-06	0.000000000000000E+000	0.000000000000000E+000
0.000000000000000E+000	09/23/2025 17:58:06.5239	1.5144	8.6553e-05	0.000000000000000E+000	0.000000000000000E+000
0.000000000000000E+000	09/23/2025 17:59:17.5239	1.51425	0.000162939	0.000000000000000E+000	0.000000000000000E+000
0.000000000000000E+000	09/23/2025 18:00:28.5239	1.51402	-8.92964e-06	0.000000000000000E+000	0.000000000000000E+000
0.000000000000000E+000	09/23/2025 18:01:39.5239	1.51395	-0.000123509	0.000000000000000E+000	0.000000000000000E+000
0.000000000000000E+000	09/23/2025 18:02:50.5239	1.51377	2.92634e-05	0.000000000000000E+000	0.000000000000000E+000
0.000000000000000E+000	09/23/2025 18:04:01.5239	1.51358	-0.000104412	0.000000000000000E+000	0.000000000000000E+000
0.000000000000000E+000	09/23/2025 18:05:12.5239	1.51345	-0.000104412	0.000000000000000E+000	0.000000000000000E+000
0.000000000000000E+000	09/23/2025 18:06:23.5239	1.51326	0.000124746	0.000000000000000E+000	0.000000000000000E+000
0.000000000000000E+000	09/23/2025 18:07:34.5239	1.51305	2.92634e-05	0.000000000000000E+000	0.000000000000000E+000
0.000000000000000E+000	09/23/2025 18:08:45.5239	1.51286	4.83599e-05	0.000000000000000E+000	0.000000000000000E+000
0.000000000000000E+000	09/23/2025 18:09:56.5239	1.51276	0.000201132	0.000000000000000E+000	0.000000000000000E+000
0.000000000000000E+000	09/23/2025 18:11:07.5239	1.51269	8.6553e-05	0.000000000000000E+000	0.000000000000000E+000
0.000000000000000E+000	09/23/2025 18:12:18.5239	1.51251	1.01669e-05	0.000000000000000E+000	0.000000000000000E+000
0.000000000000000E+000	09/23/2025 18:19:10.8243	1.43111	0.000143843	-0.100069	0.0105628
0.000000000000000E+000	09/23/2025 18:31:00.8243	1.3882	0.000182036	-0.100069	0.0302986
0.000000000000000E+000	09/23/2025 18:42:50.8243	1.35541	6.74564e-05	-0.100068	0.0500344
0.000000000000000E+000	09/23/2025 18:54:40.8242	1.31096	4.83599e-05	-0.100069	0.0697702
0.000000000000000E+000	09/23/2025 19:06:30.8242	1.30611	-2.80262e-05	-0.100068	0.089506
0.000000000000000E+000	09/23/2025 19:18:20.8242	1.31436	-6.62192e-05	-0.100069	0.109242
0.000000000000000E+000	09/23/2025 19:30:10.8242	1.29633	-0.000142605	-0.100069	0.128978
0.000000000000000E+000	09/23/2025 19:42:00.8242	1.21578	-4.71227e-05	-0.100068	0.148713
1	09/23/2025 19:53:25.9708	1.48728	1.01669e-05	0.0999897	0.00527724
1	09/23/2025 20:36:35.8954	1.42878	-8.92964e-06	0.0299706	0.0107091