File: docs/examples/XAS/Echem/Operando2/Cell4_Buffers+Fe2+/HAC_NH3_Fe_01_01_OCV_C03.mpt
EC-Lab ASCII FILE
Nb header lines : 53

Open Circuit Voltage

Run on channel : 3 (SN 52371)
User :
CE vs. WE compliance from -10 V to 10 V
Electrode connection : standard
Potential control : Ewe
Ewe ctrl range : min = 0.00 V, max = 3.00 V
Safety Limits :
	Do not start on E overload
Acquisition started on : 12/12/2025 12:29:39.154
Technique started on : 12/12/2025 12:29:39.654
Loaded Setting File :  L:\projects\cycle2025-II\20250340369-skhabazian\EC_lab\Cell C\CellC_01.mps
Saved on :
	File : HAC_NH3_Fe_01_01_OCV_C03.mpr
	Directory : L:\projects\cycle2025-II\20250340369-skhabazian\EC_lab\Cell4_Buffers+Fe2+\
	Host : 84.89.228.57
Device : VSP (SN 2155)
Address : 10.0.48.130
EC-LAB for windows v11.61 (software)
Internet server v11.61 (firmware)
Command interpretor v11.61 (firmware)
Electrode material :
Initial state :
Electrolyte :
Comments :
Mass of active material : 0.001 mg
 at x = 0.000
Molecular weight of active material (at x = 0) : 0.001 g/mol
Atomic weight of intercalated ion : 0.001 g/mol
Acquisition started at : xo = 0.000
Number of e- transfered per intercalated ion : 1
for DX = 1, DQ = 26.802 mA.h
Battery capacity : 0.000 A.h
Electrode surface area : 0.000 cm²
Characteristic mass : 0.001 g
Volume (V) : 0.001 cm³
Text export
   Mode : Standard
   Time format : Absolute MMDDYYYY
Cycle Definition : Charge/Discharge alternance
tR (h:m:s)          20:00:30.0000
dER/dt (mV/h)       0.0
record              <Ewe>
dER (mV)            0.00
dtR (s)             0.5000
E range min (V)     0.000
E range max (V)     3.000

mode	error	time/s	<Ewe/V>
3	0	12/12/2025 12:29:39.6540	1.14118
3	0	12/12/2025 12:29:56.6540	1.14118
3	0	12/12/2025 12:30:13.6540	1.14117
3	0	12/12/2025 12:30:30.6540	1.14119
3	0	12/12/2025 12:30:47.6540	1.14119
3	0	12/12/2025 12:31:04.6540	1.14118
3	0	12/12/2025 12:31:21.6540	1.14118
3	0	12/12/2025 12:31:38.6540	1.14119
3	0	12/12/2025 12:31:55.6540	1.14117
3	0	12/12/2025 12:32:12.6540	1.14118
3	0	12/12/2025 12:32:29.6540	1.14118
3	0	12/12/2025 12:32:46.6540	1.14119
3	0	12/12/2025 12:33:03.6540	1.14118
3	0	12/12/2025 12:33:20.6540	1.14118
3	0	12/12/2025 12:33:37.6540	1.14119
3	0	12/12/2025 12:33:54.6540	1.14118
3	0	12/12/2025 12:34:11.6540	1.14122
3	0	12/12/2025 12:34:28.6540	1.14121
3	0	12/12/2025 12:34:45.6540	1.14122
3	0	12/12/2025 12:35:02.6540	1.14122
3	0	12/12/2025 12:35:19.6540	1.14119
3	0	12/12/2025 12:35:36.6540	1.1412
3	0	12/12/2025 12:35:53.6540	1.14118
3	0	12/12/2025 12:36:10.6540	1.14117
3	0	12/12/2025 12:36:27.6540	1.14118
3	0	12/12/2025 12:36:44.6540	1.1412
3	0	12/12/2025 12:37:01.6540	1.1412
3	0	12/12/2025 12:37:18.6540	1.14121
3	0	12/12/2025 12:37:35.6540	1.14121
3	0	12/12/2025 12:37:52.6540	1.14119
3	0	12/12/2025 12:38:09.6540	1.14119
3	0	12/12/2025 12:38:26.6540	1.1412
3	0	12/12/2025 12:38:43.6540	1.14122
3	0	12/12/2025 12:39:00.6540	1.14121
3	0	12/12/2025 12:39:17.6540	1.14118
3	0	12/12/2025 12:39:34.6540	1.14118
3	0	12/12/2025 12:39:51.6540	1.14121
3	0	12/12/2025 12:40:08.6540	1.14119
3	0	12/12/2025 12:40:25.6540	1.1412
3	0	12/12/2025 12:40:42.6540	1.14119
3	0	12/12/2025 12:40:59.6540	1.14115
3	0	12/12/2025 12:41:16.6540	1.14112
3	0	12/12/2025 12:41:33.6540	1.1412
3	0	12/12/2025 12:41:50.6540	1.14121
3	0	12/12/2025 12:42:07.6540	1.14123
3	0	12/12/2025 12:42:24.6540	1.14123
3	0	12/12/2025 12:42:41.6540	1.14121
3	0	12/12/2025 12:42:58.6540	1.14125
3	0	12/12/2025 12:43:15.6540	1.14123
3	0	12/12/2025 12:43:32.6540	1.14124
3	0	12/12/2025 12:43:49.6540	1.14123
3	0	12/12/2025 12:44:06.6540	1.14122
3	0	12/12/2025 12:44:23.6540	1.1412
3	0	12/12/2025 12:44:40.6540	1.14122
3	0	12/12/2025 12:44:57.6540	1.14122
3	0	12/12/2025 12:45:14.6540	1.14119
3	0	12/12/2025 12:45:31.6540	1.14122
3	0	12/12/2025 12:45:48.6540	1.14119
3	0	12/12/2025 12:46:05.6540	1.1412
3	0	12/12/2025 12:46:22.6540	1.14121
3	0	12/12/2025 12:46:39.6540	1.1412
3	0	12/12/2025 12:46:56.6540	1.14118
3	0	12/12/2025 12:47:13.6540	1.14118
3	0	12/12/2025 12:47:30.6540	1.14117
3	0	12/12/2025 12:47:47.6540	1.14118
3	0	12/12/2025 12:48:04.6540	1.14119
3	0	12/12/2025 12:48:21.6540	1.14119
3	0	12/12/2025 12:48:38.6540	1.14116
3	0	12/12/2025 12:48:55.6540	1.14118
3	0	12/12/2025 12:49:12.6540	1.14119
3	0	12/12/2025 12:49:29.6540	1.14117
3	0	12/12/2025 12:49:46.6540	1.14118
3	0	12/12/2025 12:50:03.6540	1.14117
3	0	12/12/2025 12:50:20.6540	1.14115
3	0	12/12/2025 12:50:37.6540	1.14116
3	0	12/12/2025 12:50:54.6540	1.14114
3	0	12/12/2025 12:51:11.6540	1.14113
3	0	12/12/2025 12:51:28.6540	1.1412
3	0	12/12/2025 12:51:45.6540	1.14121
3	0	12/12/2025 12:52:02.6540	1.14118
3	0	12/12/2025 12:52:19.6540	1.1412
3	0	12/12/2025 12:52:36.6540	1.14118
3	0	12/12/2025 12:52:53.6540	1.14115
3	0	12/12/2025 12:53:10.6540	1.14118
3	0	12/12/2025 12:53:27.6540	1.14116
3	0	12/12/2025 12:53:44.6540	1.14112
3	0	12/12/2025 12:54:01.6540	1.14114
3	0	12/12/2025 12:54:18.6540	1.14115
3	0	12/12/2025 12:54:35.6540	1.14114
3	0	12/12/2025 12:54:52.6540	1.14115
3	0	12/12/2025 12:55:09.6540	1.14116
3	0	12/12/2025 12:55:26.6540	1.14113
3	0	12/12/2025 12:55:43.6540	1.14113
3	0	12/12/2025 12:56:00.6540	1.14113
3	0	12/12/2025 12:56:17.6540	1.14112
3	0	12/12/2025 12:56:34.6540	1.14113
3	0	12/12/2025 12:56:51.6540	1.14114
3	0	12/12/2025 12:57:08.6540	1.14111
3	0	12/12/2025 12:57:25.6540	1.14113
3	0	12/12/2025 12:57:42.6540	1.14114
3	0	12/12/2025 12:57:59.6540	1.14114
3	0	12/12/2025 12:58:16.6540	1.14116
3	0	12/12/2025 12:58:33.6540	1.14117
3	0	12/12/2025 12:58:50.6540	1.14116
3	0	12/12/2025 12:59:07.6540	1.14116
3	0	12/12/2025 12:59:24.6540	1.14116
3	0	12/12/2025 12:59:41.6540	1.14115
3	0	12/12/2025 12:59:58.6540	1.14114
3	0	12/12/2025 13:00:15.6540	1.14115
3	0	12/12/2025 13:00:32.6540	1.14114
3	0	12/12/2025 13:00:49.6540	1.14113
3	0	12/12/2025 13:01:06.6540	1.14115
3	0	12/12/2025 13:01:23.6540	1.14114
3	0	12/12/2025 13:01:40.6540	1.14112
3	0	12/12/2025 13:01:57.6540	1.14112
3	0	12/12/2025 13:02:14.6540	1.14111
3	0	12/12/2025 13:02:31.6540	1.14109
3	0	12/12/2025 13:02:48.6539	1.14111
3	0	12/12/2025 13:03:05.6539	1.14109
3	0	12/12/2025 13:03:22.6539	1.14108
3	0	12/12/2025 13:03:39.6539	1.14112
3	0	12/12/2025 13:03:56.6539	1.14111
3	0	12/12/2025 13:04:13.6539	1.14109
3	0	12/12/2025 13:04:30.6539	1.14109
3	0	12/12/2025 13:04:47.6539	1.14107
3	0	12/12/2025 13:05:04.6539	1.14105
3	0	12/12/2025 13:05:21.6539	1.14107
3	0	12/12/2025 13:05:38.6539	1.14107
3	0	12/12/2025 13:05:55.6539	1.14106
3	0	12/12/2025 13:06:12.6539	1.14106
3	0	12/12/2025 13:06:29.6539	1.14105
3	0	12/12/2025 13:06:46.6539	1.14105
3	0	12/12/2025 13:07:03.6539	1.14107
3	0	12/12/2025 13:07:20.6539	1.14107
3	0	12/12/2025 13:07:37.6539	1.14107
3	0	12/12/2025 13:07:54.6539	1.14106
3	0	12/12/2025 13:08:11.6539	1.14108
3	0	12/12/2025 13:08:28.6539	1.14107
3	0	12/12/2025 13:08:45.6539	1.14106
3	0	12/12/2025 13:09:02.6539	1.14106
3	0	12/12/2025 13:09:19.6539	1.14107
3	0	12/12/2025 13:09:36.6539	1.14106
3	0	12/12/2025 13:09:53.6539	1.14107
3	0	12/12/2025 13:10:10.6539	1.14108
3	0	12/12/2025 13:10:27.6539	1.14106
3	0	12/12/2025 13:10:44.6539	1.14106
3	0	12/12/2025 13:11:01.6539	1.14106
3	0	12/12/2025 13:11:18.6539	1.14104
3	0	12/12/2025 13:11:35.6539	1.14107
3	0	12/12/2025 13:11:52.6539	1.14106
3	0	12/12/2025 13:12:09.6539	1.14106
3	0	12/12/2025 13:12:26.6539	1.14103
3	0	12/12/2025 13:12:43.6539	1.14106
3	0	12/12/2025 13:13:00.6539	1.14102
3	0	12/12/2025 13:13:17.6539	1.14104
3	0	12/12/2025 13:13:34.6539	1.14106
3	0	12/12/2025 13:13:51.6539	1.14103
3	0	12/12/2025 13:14:08.6539	1.14102
3	0	12/12/2025 13:14:25.6539	1.14102
3	0	12/12/2025 13:14:42.6539	1.14103
3	0	12/12/2025 13:14:59.6539	1.141
3	0	12/12/2025 13:15:16.6539	1.14101
3	0	12/12/2025 13:15:33.6539	1.14101
3	0	12/12/2025 13:15:50.6539	1.14099
3	0	12/12/2025 13:16:07.6539	1.14103
3	0	12/12/2025 13:16:24.6539	1.141
3	0	12/12/2025 13:16:41.6539	1.14098
3	0	12/12/2025 13:16:58.6539	1.141
3	0	12/12/2025 13:17:15.6539	1.14098
3	0	12/12/2025 13:17:32.6539	1.14096
3	0	12/12/2025 13:17:49.6539	1.14097
3	0	12/12/2025 13:18:06.6539	1.14098
3	0	12/12/2025 13:18:23.6539	1.14096
3	0	12/12/2025 13:18:40.6539	1.14098
3	0	12/12/2025 13:18:57.6539	1.14098
3	0	12/12/2025 13:19:14.6539	1.14097
3	0	12/12/2025 13:19:31.6539	1.141
3	0	12/12/2025 13:19:48.6539	1.14098
3	0	12/12/2025 13:20:05.6539	1.14096
3	0	12/12/2025 13:20:22.6539	1.14097
3	0	12/12/2025 13:20:39.6539	1.14096
3	0	12/12/2025 13:20:56.6539	1.14096
3	0	12/12/2025 13:21:13.6539	1.14098
3	0	12/12/2025 13:21:30.6539	1.14096
3	0	12/12/2025 13:21:47.6539	1.14096
3	0	12/12/2025 13:22:04.6539	1.14098
3	0	12/12/2025 13:22:21.6539	1.14096
3	0	12/12/2025 13:22:38.6539	1.14097
3	0	12/12/2025 13:22:55.6539	1.14097
3	0	12/12/2025 13:23:12.6539	1.14095
3	0	12/12/2025 13:23:29.6539	1.14097
3	0	12/12/2025 13:23:46.6539	1.14096
3	0	12/12/2025 13:24:03.6539	1.14096
3	0	12/12/2025 13:24:20.6539	1.14096
3	0	12/12/2025 13:24:37.6539	1.14095
3	0	12/12/2025 13:24:54.6539	1.14094
3	0	12/12/2025 13:25:11.6539	1.14093
3	0	12/12/2025 13:25:28.6539	1.14094
3	0	12/12/2025 13:25:45.6539	1.14093
3	0	12/12/2025 13:26:02.6539	1.14094
3	0	12/12/2025 13:26:19.6539	1.14092
3	0	12/12/2025 13:26:36.6539	1.14092
3	0	12/12/2025 13:26:53.6539	1.14092
3	0	12/12/2025 13:27:10.6539	1.14091
3	0	12/12/2025 13:27:27.6539	1.14093
3	0	12/12/2025 13:27:44.6539	1.14091
3	0	12/12/2025 13:28:01.6539	1.14089
3	0	12/12/2025 13:28:18.6539	1.1409
3	0	12/12/2025 13:28:35.6539	1.1409
3	0	12/12/2025 13:28:52.6539	1.1409
3	0	12/12/2025 13:29:09.6539	1.14091
3	0	12/12/2025 13:29:26.6539	1.1409
3	0	12/12/2025 13:29:43.6539	1.14089
3	0	12/12/2025 13:30:00.6539	1.1409
3	0	12/12/2025 13:30:17.6539	1.14091
3	0	12/12/2025 13:30:34.6539	1.14091
3	0	12/12/2025 13:30:51.6539	1.1409
3	0	12/12/2025 13:31:08.6539	1.14089
3	0	12/12/2025 13:31:25.6539	1.14091
3	0	12/12/2025 13:31:42.6539	1.14089
3	0	12/12/2025 13:31:59.6539	1.14092
3	0	12/12/2025 13:32:16.6539	1.14091
3	0	12/12/2025 13:32:33.6539	1.14088
3	0	12/12/2025 13:32:50.6539	1.14089
3	0	12/12/2025 13:33:07.6539	1.14088
3	0	12/12/2025 13:33:24.6539	1.14088
3	0	12/12/2025 13:33:41.6539	1.1409
3	0	12/12/2025 13:33:58.6539	1.14088
3	0	12/12/2025 13:34:15.6539	1.14086
3	0	12/12/2025 13:34:32.6539	1.14087
3	0	12/12/2025 13:34:49.6539	1.14087
3	0	12/12/2025 13:35:06.6539	1.14087
3	0	12/12/2025 13:35:23.6539	1.14087
3	0	12/12/2025 13:35:40.6539	1.14084
3	0	12/12/2025 13:35:57.6539	1.14085
3	0	12/12/2025 13:36:14.6539	1.14082
3	0	12/12/2025 13:36:31.6539	1.14085
3	0	12/12/2025 13:36:48.6539	1.14085
3	0	12/12/2025 13:37:05.6539	1.14083
3	0	12/12/2025 13:37:22.6539	1.14086
3	0	12/12/2025 13:37:39.6539	1.14083
3	0	12/12/2025 13:37:56.6539	1.14083
3	0	12/12/2025 13:38:13.6539	1.14083
3	0	12/12/2025 13:38:30.6539	1.14084
3	0	12/12/2025 13:38:47.6539	1.14086
3	0	12/12/2025 13:39:04.6539	1.14083
3	0	12/12/2025 13:39:21.6539	1.14083
3	0	12/12/2025 13:39:38.6539	1.14084
3	0	12/12/2025 13:39:55.6539	1.14082
3	0	12/12/2025 13:40:12.6539	1.14086
3	0	12/12/2025 13:40:29.6539	1.14086
3	0	12/12/2025 13:40:46.6539	1.14084
3	0	12/12/2025 13:41:03.6539	1.14083
3	0	12/12/2025 13:41:20.6539	1.1408
3	0	12/12/2025 13:41:37.6539	1.14083
3	0	12/12/2025 13:41:54.6539	1.14083
3	0	12/12/2025 13:42:11.6539	1.14084
3	0	12/12/2025 13:42:28.6539	1.14085
3	0	12/12/2025 13:42:45.6539	1.14082
3	0	12/12/2025 13:43:02.6539	1.14082
3	0	12/12/2025 13:43:19.6539	1.14081
3	0	12/12/2025 13:43:36.6539	1.1408
3	0	12/12/2025 13:43:53.6539	1.14083
3	0	12/12/2025 13:44:10.6539	1.14081
3	0	12/12/2025 13:44:27.6539	1.14083
3	0	12/12/2025 13:44:44.6539	1.14081
3	0	12/12/2025 13:45:01.6539	1.14079
3	0	12/12/2025 13:45:18.6539	1.14081
3	0	12/12/2025 13:45:35.6539	1.14077
3	0	12/12/2025 13:45:37.2201	1.1408