File: docs/examples/XAS/Echem/Operando2/Cell4_Buffers+Fe2+/HAC_NH3_Fe_01_02_GCPL_C03.mpt
EC-Lab ASCII FILE
Nb header lines : 80

Galvanostatic Cycling with Potential Limitation

Run on channel : 3 (SN 52371)
User :
CE vs. WE compliance from -10 V to 10 V
Electrode connection : standard
Potential control : Ewe
Ewe ctrl range : min = 0.00 V, max = 3.00 V
Safety Limits :
	Do not start on E overload
Acquisition started on : 12/12/2025 12:29:39.154
Technique started on : 12/12/2025 13:45:37.221
Loaded Setting File :  L:\projects\cycle2025-II\20250340369-skhabazian\EC_lab\Cell C\CellC_01.mps
Saved on :
	File : HAC_NH3_Fe_01_02_GCPL_C03.mpr
	Directory : L:\projects\cycle2025-II\20250340369-skhabazian\EC_lab\Cell4_Buffers+Fe2+\
	Host : 84.89.228.57
Device : VSP (SN 2155)
Address : 10.0.48.130
EC-LAB for windows v11.61 (software)
Internet server v11.61 (firmware)
Command interpretor v11.61 (firmware)
Electrode material :
Initial state :
Electrolyte :
Comments :
Mass of active material : 0.001 mg
 at x = 0.000
Molecular weight of active material (at x = 0) : 0.001 g/mol
Atomic weight of intercalated ion : 0.001 g/mol
Acquisition started at : xo = 0.000
Number of e- transfered per intercalated ion : 1
for DX = 1, DQ = 26.802 mA.h
Battery capacity : 0.000 A.h
Electrode surface area : 0.000 cm²
Characteristic mass : 0.001 g
Volume (V) : 0.001 cm³
Text export
   Mode : Standard
   Time format : Absolute MMDDYYYY
Cycle Definition : Charge/Discharge alternance
Ns                  0                   1                   2
Set I/C             I                   I                   I
Is                  0.000               300.000             -300.000
unit Is             mA                  µA                  µA
vs.                 <None>              <None>              <None>
N                   1.00                1.00                1.00
I sign              > 0                 > 0                 > 0
t1 (h:m:s)          0:00:0.0000         4:00:0.0000         10:00:0.0000
I Range             1 mA                1 mA                1 mA
Bandwidth           5                   5                   5
dE1 (mV)            0.00                0.00                0.00
dt1 (s)             0.0000              2.0000              2.0000
EM (V)              0.000               2.200               0.900
tM (h:m:s)          0:00:0.0000         0:00:0.0000         0:00:0.0000
Im                  0.000               0.000               0.000
unit Im             mA                  mA                  mA
dI/dt               0.000               0.000               0.000
dunit dI/dt         mA/s                mA/s                mA/s
E range min (V)     0.000               0.000               0.000
E range max (V)     3.000               3.000               3.000
dq                  0.000               1.000               1.000
unit dq             A.h                 A.h                 A.h
dtq (s)             0.0000              120.0000            120.0000
dQM                 0.000               0.000               0.000
unit dQM            mA.h                mA.h                mA.h
dxM                 0.000               0.000               0.000
delta SoC (%)       pass                pass                pass
tR (h:m:s)          0:01:0.0000         0:00:0.0000         0:00:0.0000
dER/dt (mV/h)       0.0                 0.1                 0.1
dER (mV)            0.00                0.00                0.00
dtR (s)             1.0000              120.0000            120.0000
EL (V)              pass                pass                pass
goto Ns'            0                   0                   1
nc cycles           0                   0                   100

mode	ox/red	error	control changes	Ns changes	counter inc.	Ns	time/s	dq/mA.h	(Q-Qo)/mA.h	control/V/mA	Ewe/V	I Range	Q charge/discharge/mA.h	half cycle	Energy we charge/W.h	Energy we discharge/W.h	Capacitance charge/µF	Capacitance discharge/µF	step time/s	<I>/mA	x	Q discharge/mA.h	Q charge/mA.h	Capacity/mA.h	Efficiency/%	control/V	control/mA	cycle number	Pwe/W	Rwe/Ohm
3	0	0	0	0	0	0	12/12/2025 13:45:37.2207	0.000000000000000E+000	0.000000000000000E+000	0.0000000E+000	1.14107	14	0.000000000000000E+000	0	0.000000000000000E+000	0.000000000000000E+000	0.000000000000000E+000	0.000000000000000E+000	4558.07	0.000000000000000E+000	0.000000000000000E+000	0.000000000000000E+000	0.000000000000000E+000	0.000000000000000E+000	0.0000000E+000	0.0000000E+000	0.0000000E+000	0.000000000000000E+000	0.0000000E+000	0.0000000E+000
3	0	0	0	0	0	0	12/12/2025 13:46:21.2207	0.000000000000000E+000	0.000000000000000E+000	0.0000000E+000	1.14085	14	0.000000000000000E+000	0	0.000000000000000E+000	0.000000000000000E+000	0.000000000000000E+000	0.000000000000000E+000	4602.07	0.000000000000000E+000	0.000000000000000E+000	0.000000000000000E+000	0.000000000000000E+000	0.000000000000000E+000	0.0000000E+000	0.0000000E+000	0.0000000E+000	0.000000000000000E+000	0.0000000E+000	0.0000000E+000
1	1	0	1	0	0	1	12/12/2025 13:47:31.2209	0.000166687	0.00450068	0.3	1.43047	12	0.00450068	0	6.09948e-06	0.000000000000000E+000	207608	0.000000000000000E+000	4672.07	0.300037	-0.000167926	0.000000000000000E+000	0.00450068	0.00450068	0.0000000E+000	0.0000000E+000	0.3	0.000000000000000E+000	0.000429195	4767.66
1	1	0	1	0	0	1	12/12/2025 13:48:59.2209	0.000166684	0.0118348	0.3	1.7556	12	0.0118348	0	1.78228e-05	0.000000000000000E+000	105676	0.000000000000000E+000	4760.07	0.30003	-0.000441573	0.000000000000000E+000	0.0118348	0.0118348	0.0000000E+000	0.0000000E+000	0.3	0.000000000000000E+000	0.000526734	5851.41
1	1	0	1	0	0	1	12/12/2025 13:50:27.2209	0.000166683	0.0191689	0.3	1.81797	12	0.0191689	0	3.11202e-05	0.000000000000000E+000	148231	0.000000000000000E+000	4848.07	0.300029	-0.000715217	0.000000000000000E+000	0.0191689	0.0191689	0.0000000E+000	0.0000000E+000	0.3	0.000000000000000E+000	0.000545445	6059.32
1	1	0	1	0	0	1	12/12/2025 13:51:55.2209	0.000166683	0.026503	0.3	1.84242	12	0.026503	0	4.45277e-05	0.000000000000000E+000	194720	0.000000000000000E+000	4936.07	0.300029	-0.000988861	0.000000000000000E+000	0.026503	0.026503	0.0000000E+000	0.0000000E+000	0.3	0.000000000000000E+000	0.000552778	6140.81
1	1	0	1	0	0	1	12/12/2025 13:53:23.2209	0.000166681	0.0338369	0.3	1.87874	12	0.0338369	0	5.81763e-05	0.000000000000000E+000	231446	0.000000000000000E+000	5024.07	0.300025	-0.0012625	0.000000000000000E+000	0.0338369	0.0338369	0.0000000E+000	0.0000000E+000	0.3	0.000000000000000E+000	0.00056367	6261.95
1	1	0	1	0	0	1	12/12/2025 13:54:51.2209	0.000166682	0.0411709	0.3	1.89036	12	0.0411709	0	7.20158e-05	0.000000000000000E+000	275531	0.000000000000000E+000	5112.07	0.300028	-0.00153614	0.000000000000000E+000	0.0411709	0.0411709	0.0000000E+000	0.0000000E+000	0.3	0.000000000000000E+000	0.000567159	6300.6
1	1	0	1	0	0	1	12/12/2025 13:56:19.2209	0.000166678	0.0485047	0.3	1.8943	12	0.0485047	0	8.59013e-05	0.000000000000000E+000	322248	0.000000000000000E+000	5200.07	0.30002	-0.00180978	0.000000000000000E+000	0.0485047	0.0485047	0.0000000E+000	0.0000000E+000	0.3	0.000000000000000E+000	0.000568329	6313.92
1	1	0	1	0	0	1	12/12/2025 13:57:47.2209	0.000166679	0.0558386	0.3	1.89659	12	0.0558386	0	9.98081e-05	0.000000000000000E+000	369411	0.000000000000000E+000	5288.07	0.300023	-0.00208341	0.000000000000000E+000	0.0558386	0.0558386	0.0000000E+000	0.0000000E+000	0.3	0.000000000000000E+000	0.00056902	6321.49
1	1	0	1	0	0	1	12/12/2025 13:59:15.2209	0.000166681	0.0631725	0.3	1.89728	12	0.0631725	0	0.000113719	0.000000000000000E+000	417404	0.000000000000000E+000	5376.07	0.300026	-0.00235705	0.000000000000000E+000	0.0631725	0.0631725	0.0000000E+000	0.0000000E+000	0.3	0.000000000000000E+000	0.000569232	6323.71
1	1	0	1	0	0	1	12/12/2025 14:00:43.2209	0.00016668	0.0705065	0.3	1.89482	12	0.0705065	0	0.000127617	0.000000000000000E+000	467975	0.000000000000000E+000	5464.07	0.300024	-0.00263069	0.000000000000000E+000	0.0705065	0.0705065	0.0000000E+000	0.0000000E+000	0.3	0.000000000000000E+000	0.000568491	6315.54
1	1	0	1	0	0	1	12/12/2025 14:02:11.2209	0.000166683	0.0778404	0.3	1.89154	12	0.0778404	0	0.000141521	0.000000000000000E+000	519796	0.000000000000000E+000	5552.07	0.300029	-0.00290433	0.000000000000000E+000	0.0778404	0.0778404	0.0000000E+000	0.0000000E+000	0.3	0.000000000000000E+000	0.000567516	6304.52
1	1	0	1	0	0	1	12/12/2025 14:03:39.2209	0.000166683	0.0851744	0.3	1.89478	12	0.0851744	0	0.000155411	0.000000000000000E+000	565371	0.000000000000000E+000	5640.07	0.300029	-0.00317797	0.000000000000000E+000	0.0851744	0.0851744	0.0000000E+000	0.0000000E+000	0.3	0.000000000000000E+000	0.000568488	6315.32
1	1	0	1	0	0	1	12/12/2025 14:05:07.2209	0.00016668	0.0925084	0.3	1.89466	12	0.0925084	0	0.000169307	0.000000000000000E+000	614181	0.000000000000000E+000	5728.07	0.300024	-0.00345161	0.000000000000000E+000	0.0925084	0.0925084	0.0000000E+000	0.0000000E+000	0.3	0.000000000000000E+000	0.000568444	6315.05
1	1	0	1	0	0	1	12/12/2025 14:06:35.2209	0.000166681	0.0998424	0.3	1.89215	12	0.0998424	0	0.00018319	0.000000000000000E+000	665964	0.000000000000000E+000	5816.07	0.300025	-0.00372525	0.000000000000000E+000	0.0998424	0.0998424	0.0000000E+000	0.0000000E+000	0.3	0.000000000000000E+000	0.000567692	6306.62
1	1	0	1	0	0	1	12/12/2025 14:08:03.2209	0.000166681	0.107176	0.3	1.89011	12	0.107176	0	0.00019707	0.000000000000000E+000	717596	0.000000000000000E+000	5904.07	0.300027	-0.00399889	0.000000000000000E+000	0.107176	0.107176	0.0000000E+000	0.0000000E+000	0.3	0.000000000000000E+000	0.000567082	6299.8
1	1	0	1	0	0	1	12/12/2025 14:09:31.2209	0.000166681	0.11451	0.3	1.88755	12	0.11451	0	0.000210904	0.000000000000000E+000	770361	0.000000000000000E+000	5992.07	0.300026	-0.00427253	0.000000000000000E+000	0.11451	0.11451	0.0000000E+000	0.0000000E+000	0.3	0.000000000000000E+000	0.000566315	6291.29
1	1	0	1	0	0	1	12/12/2025 14:10:59.2209	0.000166682	0.121844	0.3	1.88963	12	0.121844	0	0.000224753	0.000000000000000E+000	816529	0.000000000000000E+000	6080.07	0.300028	-0.00454617	0.000000000000000E+000	0.121844	0.121844	0.0000000E+000	0.0000000E+000	0.3	0.000000000000000E+000	0.000566942	6298.18
1	1	0	1	0	0	1	12/12/2025 14:12:27.2209	0.000166681	0.129178	0.3	1.89114	12	0.129178	0	0.000238591	0.000000000000000E+000	863256	0.000000000000000E+000	6168.07	0.300025	-0.00481982	0.000000000000000E+000	0.129178	0.129178	0.0000000E+000	0.0000000E+000	0.3	0.000000000000000E+000	0.000567389	6303.26
1	1	0	1	0	0	1	12/12/2025 14:13:55.2209	0.000166679	0.136512	0.3	1.89276	12	0.136512	0	0.000252454	0.000000000000000E+000	909530	0.000000000000000E+000	6256.07	0.300023	-0.00509345	0.000000000000000E+000	0.136512	0.136512	0.0000000E+000	0.0000000E+000	0.3	0.000000000000000E+000	0.000567871	6308.71
1	1	0	1	0	0	1	12/12/2025 14:15:23.2209	0.00016668	0.143846	0.3	1.88791	12	0.143846	0	0.000266332	0.000000000000000E+000	967061	0.000000000000000E+000	6344.07	0.300025	-0.00536709	0.000000000000000E+000	0.143846	0.143846	0.0000000E+000	0.0000000E+000	0.3	0.000000000000000E+000	0.000566421	6292.53
1	1	0	1	0	0	1	12/12/2025 14:16:51.2209	0.00016668	0.15118	0.3	1.8861	12	0.15118	0	0.000280199	0.000000000000000E+000	1.01982e+06	0.000000000000000E+000	6432.07	0.300024	-0.00564073	0.000000000000000E+000	0.15118	0.15118	0.0000000E+000	0.0000000E+000	0.3	0.000000000000000E+000	0.000565877	6286.5
1	1	0	1	0	0	1	12/12/2025 14:18:19.2209	0.00016668	0.158514	0.3	1.89106	12	0.158514	0	0.000294046	0.000000000000000E+000	1.05945e+06	0.000000000000000E+000	6520.07	0.300024	-0.00591437	0.000000000000000E+000	0.158514	0.158514	0.0000000E+000	0.0000000E+000	0.3	0.000000000000000E+000	0.000567363	6303.03
1	1	0	1	0	0	1	12/12/2025 14:19:47.2209	0.000166682	0.165848	0.3	1.89133	12	0.165848	0	0.00030792	0.000000000000000E+000	1.10792e+06	0.000000000000000E+000	6608.07	0.300027	-0.00618801	0.000000000000000E+000	0.165848	0.165848	0.0000000E+000	0.0000000E+000	0.3	0.000000000000000E+000	0.00056745	6303.85
1	1	0	1	0	0	1	12/12/2025 14:21:15.2209	0.000166683	0.173182	0.3	1.88709	12	0.173182	0	0.000321791	0.000000000000000E+000	1.16607e+06	0.000000000000000E+000	6696.07	0.30003	-0.00646166	0.000000000000000E+000	0.173182	0.173182	0.0000000E+000	0.0000000E+000	0.3	0.000000000000000E+000	0.000566184	6289.69
1	1	0	1	0	0	1	12/12/2025 14:22:43.2209	0.000166679	0.180516	0.3	1.89034	12	0.180516	0	0.000335669	0.000000000000000E+000	1.20813e+06	0.000000000000000E+000	6784.07	0.300022	-0.0067353	0.000000000000000E+000	0.180516	0.180516	0.0000000E+000	0.0000000E+000	0.3	0.000000000000000E+000	0.000567143	6300.65
1	1	0	1	0	0	1	12/12/2025 14:24:11.2209	0.00016668	0.18785	0.3	1.89272	12	0.18785	0	0.000349548	0.000000000000000E+000	1.25166e+06	0.000000000000000E+000	6872.07	0.300025	-0.00700893	0.000000000000000E+000	0.18785	0.18785	0.0000000E+000	0.0000000E+000	0.3	0.000000000000000E+000	0.000567863	6308.55
1	1	0	1	0	0	1	12/12/2025 14:25:39.2209	0.000166684	0.195184	0.3	1.89198	12	0.195184	0	0.000363418	0.000000000000000E+000	1.30232e+06	0.000000000000000E+000	6960.07	0.300031	-0.00728257	0.000000000000000E+000	0.195184	0.195184	0.0000000E+000	0.0000000E+000	0.3	0.000000000000000E+000	0.000567652	6305.92
1	1	0	1	0	0	1	12/12/2025 14:27:07.2209	0.000166683	0.202518	0.3	1.89241	12	0.202518	0	0.00037729	0.000000000000000E+000	1.35016e+06	0.000000000000000E+000	7048.07	0.30003	-0.00755622	0.000000000000000E+000	0.202518	0.202518	0.0000000E+000	0.0000000E+000	0.3	0.000000000000000E+000	0.000567781	6307.41
1	1	0	1	0	0	1	12/12/2025 14:28:35.2209	0.00016668	0.209852	0.3	1.89312	12	0.209852	0	0.000391173	0.000000000000000E+000	1.39723e+06	0.000000000000000E+000	7136.07	0.300025	-0.00782986	0.000000000000000E+000	0.209852	0.209852	0.0000000E+000	0.0000000E+000	0.3	0.000000000000000E+000	0.000567983	6309.88
1	1	0	1	0	0	1	12/12/2025 14:30:03.2209	0.00016668	0.217186	0.3	1.89386	12	0.217186	0	0.000405045	0.000000000000000E+000	1.44407e+06	0.000000000000000E+000	7224.07	0.300024	-0.0081035	0.000000000000000E+000	0.217186	0.217186	0.0000000E+000	0.0000000E+000	0.3	0.000000000000000E+000	0.000568205	6312.37
1	0	0	0	0	0	2	12/12/2025 14:31:25.3265	-0.00016673	0.212359	-0.3	1.57972	12	-0.00583555	1	0.000407002	9.39748e-06	923879	184332	70	-0.300113	-0.00792341	0.00583555	0.000000000000000E+000	0.00583555	0.0000000E+000	0.0000000E+000	-0.3	0.000000000000000E+000	-0.000474095	5263.74
1	0	0	0	0	0	2	12/12/2025 14:32:16.5625	-0.000103037	0.208088	-0.3	1.55823	12	-0.0101068	1	0.000407002	1.60923e-05	923879	393436	121.236	-0.300107	-0.00776404	0.0101068	0.000000000000000E+000	0.0101068	0.0000000E+000	0.0000000E+000	-0.3	0.000000000000000E+000	-0.000467636	5192.24