File: docs/examples/opeando_xrd/IS17_D/Data/IS17_D_fresh/17_D_fresh_f00011.xye
# /beamlines/bl04/projects/cycle2025-II/20250340211-lsimonelli/DATA/IS17_D_fresh/17_D_fresh_f00011.xye : mythproc.py merge -s 0.006 -l 0.5 -f /beamlines/bl04/inhouse/ff/FlatField/ff_20Nov2024rod8mm60s_17keV.raw -b True -c true -o xye /beamlines/bl04/projects/cycle2025-II/20250340211-lsimonelli/DATA/IS17_D_fresh/17_D_fresh_00011.dat
# IsMon = [6774220, 6776208, 6777311]  IsPos = [-1.4999, -2.4884, -3.4988]
# Wave = 0.4962  CalPath /beamlines/bl04/projects/cycle2025-II/20250340211-lsimonelli/DATA/Align/Si_Pos1_25keV_f00001.cal
# Date = 2025-09-25_11:43:32 Dt = 4.8000  Bin = 0.0060  <imon> = 6775913 +/- 1279 (Min/Max) 6774220 / 6777311
# icurr 251.7395  mocoIn 1.7177E-05  mocoOut 0.8058  i15 7.09327e+06  imon 6.77591e+06  i7 5.0000  iEMpd_timer 4.8000  iEMpd_1 3.4657E-08  iEMpd_2 7.6989E-08  iEMpd_3 1.6192E-08  iEMpd_4 4.7283E-08  iEMhp_timer 4.8000  iEMhp_1 4.9177E-06  iEMhp_2 -2.5799E-08  iEMhp_3 -2.5072E-08  iEMhp_4 -2.0012E-08
#      9776
 1.7416  69689.4  264.096
 1.9396  45714.5  214.172
 2.1376  32372.5  180.226
 2.3356  29125.2  170.589
 2.5336  26907.7  164.543
 2.7316  25747.3  161.048
 2.9296  24905.5  158.569
 3.1276  24524.6  156.893
 3.3256  24396.8  156.143
 3.5236  26111.8  161.345
 3.7216  23998.2  155.927
 3.9196  23655.5  154.029
 4.1176  23680.7  153.878
 4.3156  24904.7  157.961
 4.5136  27529.6  165.043
 4.7116  28497.4  169.083
 4.9096  27937.3  166.832
 5.1076  27858.9  167.194
 5.3056  28384.8  168.485
 5.5036  28445.5  168.553
 5.7016  28872.4  169.785
 5.8996  29805.4  171.685
 6.0976  30242.9  174.435
 6.2956  31006.1  175.925
 6.4936  31480.5  176.435
 6.6916  32024  178.987
 6.8896  32876.4  181.215
 7.0876  33920.6  184.814
 7.2856  33993.6  184.033
 7.4836  34480  184.652
 7.6816  35639.2  188.293
 7.8796  37296.9  192.594
 8.0776  39067.5  198.156
 8.2756  41077.3  201.718
 8.4736  42363.2  204.656
 8.6716  41440.3  203.082
 8.8696  40977.5  202.45
 9.0676  40273.5  200.036
 9.2656  39482.8  198.784
 9.4636  39051  195.999
 9.6616  38505.3  195.456
 9.8596  37193.9  191.545
 10.0576  35437.7  187.668
 10.2556  34204.9  184.836
 10.4536  33020.4  181.196
 10.6516  32224.4  179.193
 10.8496  31199.3  175.701
 11.0476  30609.5  174.061
 11.2456  29859.1  172.472
 11.4436  29729.5  171.226
 11.6416  29270.5  170.285
 11.8396  27663.3  165.757
 12.0376  27665.5  165.374
 12.2356  26910.3  163.527
 12.4336  27135.9  163.727
 12.6316  26709.6  162.705
 12.8296  26946.1  163.061
 13.0276  27579.3  165.148
 13.2256  27686.9  165.859
 13.4236  27428.6  164.839
 13.6216  27234.1  164.278
 13.8196  27312.4  164.259
 14.0176  27036.6  163.731
 14.2156  26391  160.767
 14.4136  25156.3  158.408
 14.6116  24848.4  156.591
 14.8096  23977.7  153.808
 15.0076  22747.1  153.834
 15.2056  22557.5  148.754
 15.4036  21456.8  145.971
 15.6016  20946.5  143.247
 15.7996  20500.1  141.999
 15.9976  19455  141.463
 16.1956  18708  136.478
 16.3936  18405.5  134.504
 16.5916  18228.2  134.521
 16.7896  18306.9  134.874
 16.9876  18111.8  135.693
 17.1856  18062.5  133.775
 17.3836  17488.6  131.525
 17.5816  16848.5  129.615
 17.7796  16798.9  129.348
 17.9776  16538.7  129.177
 18.1756  16627.6  128.147
 18.3736  16655.8  128.813
 18.5716  16050.7  126.183
 18.7696  16233.5  126.451
 18.9676  15879.9  124.863
 19.1656  15828  125.242
 19.3636  15804.6  125.366
 19.5616  15626.2  124.826
 19.7596  15698.7  124.489
 19.9576  15959.2  125.576
 20.1556  15857.5  125.737
 20.3536  15262.4  122.696
 20.5516  14911.2  121.75
 20.7496  14698.5  120.814
 20.9476  14574.3  120.033
 21.1456  14742.3  121.079
 21.3436  14568.9  120.314
 21.5416  14437.9  119.762
 21.7396  14372.6  119.333
 21.9376  14307.9  118.818
 22.1356  14317.4  118.987
 22.3336  14423.6  119.744
 22.5316  14197.9  118.901
 22.7296  14273  118.541
 22.9276  14132.9  118.661
 23.1256  14267.1  118.664
 23.3236  14087.4  118.516
 23.5216  13827.8  117.06
 23.7196  13678.9  116.364
 23.9176  13626  115.889
 24.1156  13288.8  114.937
 24.3136  12992.6  114.475
 24.5116  13211.8  114.94
 24.7096  12813.7  113.007
 24.9076  12610.5  112.135
 25.1056  12470.9  111.999
 25.3036  12425.2  111.27
 25.5016  12335  110.898
 25.6996  12169.5  109.713
 25.8976  12137.3  110.035
 26.0956  12157.1  110.14
 26.2936  12118.6  109.594
 26.4916  12240  110.021
 26.6896  11784.5  108.255
 26.8876  11690.4  107.676
 27.0856  11690.2  107.727
 27.2836  11476  106.62
 27.4816  11493.4  106.629
 27.6796  11293.7  106.098
 27.8776  11263.2  105.802
 28.0756  11301.5  106.279
 28.2736  11195.1  105.343
 28.4716  11026.5  104.595
 28.6696  11200.8  105.261
 28.8676  10885.8  104.134
 29.0656  10780.6  103.609
 29.2636  10716.7  103.088
 29.4616  10781.1  103.582
 29.6596  10749.1  102.97
 29.8576  10629.8  103.115
 30.0556  10566  102.679
 30.2536  10575.3  102.504
 30.4516  10361.7  101.111
 30.6496  10541.7  101.7
 30.8476  10339.4  101.184
 31.0456  10210  100.51
 31.2436  10266.5  100.021
 31.4416  10397.2  100.842
 31.6396  10290.7  100.368
 31.8376  10388.1  100.374
 32.0356  10064.3  99.3873
 32.2336  10090.2  98.8627
 32.4316  9855.9  98.1301
 32.6296  9964.94  98.5051
 32.8276  9896.95  97.9256
 33.0256  9762.63  97.3397
 33.2236  9721.07  97.2856
 33.4216  9784.77  97.2722
 33.6196  9841.99  97.8693
 33.8176  9599.66  96.8395
 34.0156  9482.26  95.8465
 34.2136  9561.5  96.2802
 34.4116  9374.7  95.4956
 34.6096  9327.98  95.1247
 34.8076  9284.09  95.3213
 35.0056  9223.72  94.6866
 35.2036  9173.01  94.6545
 35.4016  9167  94.5445
 35.5996  9072.04  94.0899
 35.7976  9060.06  94.3167
 35.9956  9066.79  93.9857
 36.1936  9021.73  93.614
 36.3916  8893.34  93.1285
 36.5896  8874.26  94.0313
 36.7876  8808.61  93.0549
 36.9856  8574.84  91.8385
 37.1836  8714.06  91.663
 37.3816  8663.98  91.7752
 37.5796  8616.8  93.3112
 37.7776  8559.59  91.3201
 37.9756  8636.56  91.6167
 38.1736  8665.17  91.9655
 38.3716  8516.34  91.4516
 38.5696  8566.53  92.1108
 38.7676  8278.28  90.0482
 38.9656  8369.05  90.1675
 39.1636  8362.93  90.4049
 39.3616  8454.72  90.8303
 39.5596  8307.85  90.8804
 39.7576  8163.63  89.4799
 39.9556  8335.89  90.0447
 40.1536  8409  90.6479
 40.3516  8324.27  90.1984
 40.5496  8428.85  91.033
 40.7476  8386.89  90.8158
 40.9456  8441.07  90.8487
 41.1436  8327.54  89.95
 41.3416  8234.87  89.7841
 41.5396  8203.61  89.4141
 41.7376  8191.85  89.6189
 41.9356  8135.15  89.1707
 42.1336  8178.72  89.5619
 42.3316  8126.08  89.4739
 42.5296  8137.99  89.0455
 42.7276  8039.98  88.7538
 42.9256  8095.1  88.9263
 43.1236  8055.76  88.8162
 43.3216  8059.71  88.588
 43.5196  7887.55  87.703
 43.7176  8019.96  88.8315
 43.9156  8063.25  88.9766
 44.1136  7854.91  87.3648
 44.3116  8085.04  88.6506
 44.5096  8029.5  88.6632
 44.7076  7977.71  88.3054
 44.9056  7881.68  87.6373
 45.1036  7790.07  86.7398
 45.3016  7704.47  86.7805
 45.4996  7737.75  86.8983
 45.6976  7736.88  87.0708
 45.8956  7606.35  86.1519
 46.0936  7664.46  86.4899
 46.2916  7791.99  87.1809
 46.4896  7747.2  86.9764
 46.6876  7607.18  86.9102
 46.8856  7658.1  86.4443
 47.0836  7552.02  86.0892
 47.2816  7648  86.5049
 47.4796  7710.49  86.9781
 47.6776  7528.76  86.8978
 47.8756  7579.97  86.3429
 48.0736  7653.68  87.2371
 48.2716  7579.37  86.625
 48.4696  7576.38  86.1989
 48.6676  7536  86.5699
 48.8656  7597.29  86.6464
 49.0636  7476.13  85.9018
 49.2616  7527.87  86.2201
 49.4596  7544.65  85.873
 49.6576  7519.81  85.971
 49.8556  7415.72  85.3598
 50.0536  7422.07  85.8821
 50.2516  7455.77  86.2126
 50.4496  7443.43  85.7762
 50.6476  7605.78  86.381
 50.8456  7388.75  85.2377
 51.0436  7385.67  85.6686
 51.2416  7410.17  85.4715
 51.4396  7190.59  84.6029
 51.6376  7503.35  86.2454
 51.8356  7488.79  85.7614
 52.0336  7107.64  84.0769
 52.2316  7057.37  84.1449
 52.4296  7277.04  85.1178
 52.6276  7252.8  85.0973
 52.8256  7164.05  84.1022
 53.0236  7123.91  84.5569
 53.2216  7098.54  84.4368
 53.4196  7036.63  83.9979
 53.6176  6979.27  84.144
 53.8156  7135.86  84.7404
 54.0136  7059.83  84.4674
 54.2116  7064.31  84.1428
 54.4096  7102.53  84.4242
 54.6076  7001.75  84.1883
 54.8056  6948.23  83.6375
 55.0036  6986.8  84.2863
 55.2016  6931.09  83.4667
 55.3996  7050.9  84.1585
 55.5976  7040.7  84.2881
 55.7956  6989.74  83.795
 55.9936  6924.83  83.548
 56.1916  7059.09  84.3649
 56.3896  7020.29  84.1322
 56.5876  6920.15  84.1126
 56.7856  6908.24  83.4899
 56.9836  6750.52  82.308
 57.1816  6943.29  83.8769
 57.3796  6892.12  83.3539
 57.5776  7064.95  84.3218
 57.7756  6860.92  83.7678
 57.9736  6969.05  84.0782
 58.1716  6889.88  83.8477
 58.3696  6970.61  84.0752
 58.5676  7079.41  84.1475
 58.7656  6842  83.4543
 58.9636  7021.97  84.5796
 59.1616  7031.17  84.7759
 59.3596  6973.48  83.6285
 59.5576  7050.14  84.1491
 59.7556  7040.02  84.5402
 59.9536  7061.2  84.558
 60.1516  6976.08  84.9589
 60.1996  0.0000000E+00  0.0000000E+00