File: docs/examples/opeando_xrd/IS17_D/Data/IS17_D_fresh/17_D_fresh_f00001.xye
# /beamlines/bl04/projects/cycle2025-II/20250340211-lsimonelli/DATA/IS17_D_fresh/17_D_fresh_f00001.xye : mythproc.py merge -s 0.006 -l 0.5 -f /beamlines/bl04/inhouse/ff/FlatField/ff_20Nov2024rod8mm60s_17keV.raw -b True -c true -o xye /beamlines/bl04/projects/cycle2025-II/20250340211-lsimonelli/DATA/IS17_D_fresh/17_D_fresh_00001.dat
# IsMon = [6743746, 6744278, 6741581]  IsPos = [-1.5000, -2.4886, -3.4988]
# Wave = 0.4962  CalPath /beamlines/bl04/projects/cycle2025-II/20250340211-lsimonelli/DATA/Align/Si_Pos1_25keV_f00001.cal
# Date = 2025-09-23_17:54:02 Dt = 4.8000  Bin = 0.0060  <imon> = 6743202 +/- 1166 (Min/Max) 6741581 / 6744278
# icurr 249.2779  mocoIn 1.7009E-05  mocoOut 0.7981  i15 7.03775e+06  imon 6.7432e+06  i7 6.3333  iEMpd_timer 4.8000  iEMpd_1 3.6455E-08  iEMpd_2 7.8435E-08  iEMpd_3 1.8115E-08  iEMpd_4 4.8079E-08  iEMhp_timer 4.8000  iEMhp_1 4.8729E-06  iEMhp_2 -2.4199E-08  iEMhp_3 -2.3698E-08  iEMhp_4 -2.0937E-08
#      9776
 1.7416  69557.5  263.803
 1.9396  45465.8  213.561
 2.1376  32233.3  179.808
 2.3356  28721.1  169.373
 2.5336  27077.7  165.035
 2.7316  25648  160.712
 2.9296  24656.8  157.758
 3.1276  24001.6  155.189
 3.3256  24005.9  154.875
 3.5236  25656.1  160.064
 3.7216  23556.5  154.486
 3.9196  23240.8  152.674
 4.1176  22997.5  151.637
 4.3156  24335.6  156.158
 4.5136  26750.6  162.688
 4.7116  27865.9  167.2
 4.9096  27245.5  164.75
 5.1076  27177  165.131
 5.3056  27363.1  165.566
 5.5036  27071.4  164.508
 5.7016  27623.7  166.071
 5.8996  28215.7  167.045
 6.0976  29208.2  171.417
 6.2956  29898.4  172.76
 6.4936  30461.9  173.561
 6.6916  31119.7  176.44
 6.8896  31974.2  178.71
 7.0876  33141.6  182.593
 7.2856  33086.2  181.564
 7.4836  33545.5  182.133
 7.6816  34415  185.027
 7.8796  36348.9  190.156
 8.0776  37816.1  194.971
 8.2756  39684.3  198.301
 8.4736  40460.1  200.023
 8.6716  40204.4  200.034
 8.8696  39644.4  199.138
 9.0676  39120.8  197.155
 9.2656  37857.3  194.657
 9.4636  37625.9  192.429
 9.6616  36711.5  190.87
 9.8596  35568.5  187.293
 10.0576  34203.5  183.943
 10.2556  32582.5  180.376
 10.4536  31058.4  175.704
 10.6516  30155.7  173.321
 10.8496  29383.9  170.505
 11.0476  28732  168.589
 11.2456  27829  167
 11.4436  27704.5  165.297
 11.6416  28847.3  169.05
 11.8396  26566.5  162.431
 12.0376  26568.5  162.047
 12.2356  26014.3  160.81
 12.4336  26125.6  160.651
 12.6316  25556  159.152
 12.8296  25871.3  159.774
 13.0276  26557.3  162.067
 13.2256  26424.1  162.036
 13.4236  26617  162.378
 13.6216  26103.4  160.825
 13.8196  26647.8  161.983
 14.0176  25748.4  159.845
 14.2156  25356.4  157.581
 14.4136  24163.1  155.247
 14.6116  23623.3  152.683
 14.8096  22967.4  150.542
 15.0076  21859.8  150.783
 15.2056  21645.7  145.721
 15.4036  20387.8  142.299
 15.6016  20045.6  140.144
 15.7996  19584.5  138.815
 15.9976  18701.2  138.705
 16.1956  17862.1  133.361
 16.3936  17734.1  132.032
 16.5916  17356  131.27
 16.7896  17374.2  131.391
 16.9876  17165.6  132.095
 17.1856  17052.8  129.837
 17.3836  16784.2  128.821
 17.5816  16006.3  126.324
 17.7796  15843.3  125.605
 17.9776  15522.9  125.149
 18.1756  15672.2  124.35
 18.3736  15431  123.984
 18.5716  15166.1  122.662
 18.7696  15194.8  122.34
 18.9676  14969.7  121.228
 19.1656  14894.2  121.687
 19.3636  14861.1  121.677
 19.5616  14617  120.729
 19.7596  14871.1  121.158
 19.9576  15002  121.753
 20.1556  15780.3  125.434
 20.3536  15187.6  122.401
 20.5516  14743.3  121.065
 20.7496  14239.1  118.818
 20.9476  14022  117.745
 21.1456  14167.7  118.701
 21.3436  13984.1  117.868
 21.5416  13798.3  117.088
 21.7396  13793.5  116.909
 21.9376  13790.5  116.652
 22.1356  13700  116.546
 22.3336  13692.1  116.658
 22.5316  13698.3  116.799
 22.7296  13582.1  115.64
 22.9276  13448.4  115.767
 23.1256  13629.2  116.002
 23.3236  13430.3  115.724
 23.5216  13294.8  114.781
 23.7196  13107.5  114.136
 23.9176  12988.7  113.141
 24.1156  12983.5  113.613
 24.3136  12627.3  112.839
 24.5116  12697.9  112.67
 24.7096  12359.8  110.975
 24.9076  12002.5  109.382
 25.1056  12047.7  109.785
 25.3036  11845.5  108.726
 25.5016  11818.1  108.552
 25.6996  11782.6  107.959
 25.8976  11628.4  107.686
 26.0956  11729.1  108.189
 26.2936  11659.3  107.494
 26.4916  11719.3  107.656
 26.6896  11209.9  105.582
 26.8876  11249.3  105.621
 27.0856  11311.3  105.925
 27.2836  11129.1  104.997
 27.4816  11041.4  104.511
 27.6796  10753.6  103.524
 27.8776  10756.3  103.391
 28.0756  10778.7  103.796
 28.2736  10685.5  102.92
 28.4716  10602.7  102.568
 28.6696  10592.1  102.364
 28.8676  10347.2  101.521
 29.0656  10295.4  101.249
 29.2636  10344.5  101.189
 29.4616  10398  101.733
 29.6596  10289.7  100.752
 29.8576  10092.7  100.484
 30.0556  10202.4  100.908
 30.2536  10327  101.301
 30.4516  10016.4  99.4184
 30.6496  10033.7  99.2241
 30.8476  9976.32  99.3925
 31.0456  9909.33  99.0165
 31.2436  9851.68  97.9771
 31.4416  9882.85  98.3004
 31.6396  9828.78  98.0874
 31.8376  9972.77  98.3345
 32.0356  9782.09  97.9719
 32.2336  9643.74  96.6459
 32.4316  9510.09  96.3911
 32.6296  9472.08  95.9672
 32.8276  9424.35  95.5662
 33.0256  9417.68  95.6002
 33.2236  9237.85  94.8322
 33.4216  9368.5  95.2119
 33.6196  9403.58  95.7005
 33.8176  9356.61  95.605
 34.0156  9219.52  94.5067
 34.2136  9238.65  94.6334
 34.4116  9108.27  94.131
 34.6096  9037.55  93.6249
 34.8076  8936.08  93.5178
 35.0056  8967.39  93.3654
 35.2036  8903.11  93.2356
 35.4016  8855.17  92.9207
 35.5996  8835.77  92.8559
 35.7976  8682.4  92.3304
 35.9956  8775.43  92.4599
 36.1936  8793.83  92.4241
 36.3916  8559.84  91.3617
 36.5896  8553.82  92.7969
 36.7876  8407.49  90.9068
 36.9856  8210.63  89.8694
 37.1836  8346.17  89.7128
 37.3816  8280.8  89.7329
 37.5796  8251.61  91.3124
 37.7776  8245.81  89.6346
 37.9756  8302.81  89.8247
 38.1736  8280.29  89.9043
 38.3716  8014.06  88.7021
 38.5696  8062.14  89.3605
 38.7676  8069.14  88.8947
 38.9656  8174.49  89.0924
 39.1636  8035.01  88.5733
 39.3616  8147.75  89.1574
 39.5596  7894.26  88.603
 39.7576  7883.8  87.933
 39.9556  7964  88.0147
 40.1536  8130.81  89.1299
 40.3516  8072.2  88.8196
 40.5496  8048.96  88.7465
 40.7476  8042.32  88.9232
 40.9456  8097  88.9756
 41.1436  8072.63  88.5596
 41.3416  7948.15  88.2098
 41.5396  7861.16  87.5336
 41.7376  7777.78  87.3289
 41.9356  7807.16  87.3502
 42.1336  7900.61  88.0205
 42.3316  7730.39  87.266
 42.5296  7870.18  87.5703
 42.7276  7853.22  87.7162
 42.9256  7857.39  87.6089
 43.1236  7737.66  87.0468
 43.3216  7763.25  87.0463
 43.5196  7681.21  86.4974
 43.7176  7671.29  86.8797
 43.9156  7699.79  86.9563
 44.1136  7614.06  86.0235
 44.3116  7675.37  86.3844
 44.5096  7683.16  86.7385
 44.7076  7674.82  86.5982
 44.9056  7612.46  86.1263
 45.1036  7471.27  84.9478
 45.3016  7505.42  85.6472
 45.4996  7428.83  85.1433
 45.6976  7393.75  85.1289
 45.8956  7427.48  85.1275
 46.0936  7363.98  84.5228
 46.2916  7447.81  85.227
 46.4896  7538.04  85.786
 46.6876  7218.77  84.6529
 46.8856  7373.38  84.8221
 47.0836  7260.52  84.4141
 47.2816  7267.51  84.3143
 47.4796  7387.42  85.1356
 47.6776  7240.17  85.2255
 47.8756  7331.61  84.9
 48.0736  7262.53  84.9803
 48.2716  7325.05  85.1667
 48.4696  7382.45  85.0918
 48.6676  7250.75  84.9151
 48.8656  7415.37  85.6046
 49.0636  7255.1  84.6123
 49.2616  7208.39  84.3667
 49.4596  7350.06  84.7613
 49.6576  7192.37  84.0771
 49.8556  7230.99  84.3098
 50.0536  7198.73  84.5755
 50.2516  7235.49  84.9068
 50.4496  7195.28  84.2743
 50.6476  7295.91  84.6034
 50.8456  7212.37  84.2181
 51.0436  7095.64  83.9756
 51.2416  7214.05  84.3444
 51.4396  7082.34  83.9758
 51.6376  7075.38  83.7528
 51.8356  7184.05  83.9129
 52.0336  6871.37  82.6771
 52.2316  6989.17  83.738
 52.4296  7055.78  83.8124
 52.6276  6959.66  83.353
 52.8256  7059.84  83.4986
 53.0236  6869.64  83.0225
 53.2216  6840.69  83.0768
 53.4196  6970.02  83.5895
 53.6176  6884.21  83.5518
 53.8156  6803.31  82.724
 54.0136  6866.31  83.3042
 54.2116  6878.48  83.0254
 54.4096  6817.3  82.7093
 54.6076  6762.96  82.7398
 54.8056  6779.69  82.6197
 55.0036  6789.66  82.9551
 55.2016  6821.65  82.7365
 55.3996  6778.22  82.5186
 55.5976  6666.93  82.0323
 55.7956  6857.59  82.9971
 55.9936  6752.05  82.5029
 56.1916  6749.74  82.5007
 56.3896  6821.52  82.9382
 56.5876  6686.91  82.6791
 56.7856  6662.33  82.0018
 56.9836  6721.31  82.1239
 57.1816  6699.04  82.4011
 57.3796  6724.8  82.3303
 57.5776  6729.66  82.3025
 57.7756  6591.6  82.1049
 57.9736  6587.99  81.7478
 58.1716  6643.18  82.3374
 58.3696  6803.53  83.0624
 58.5676  6679.88  81.7574
 58.7656  6758.01  82.9481
 58.9636  6760.95  82.9959
 59.1616  6808.3  83.4273
 59.3596  6709.9  82.0514
 59.5576  6699.83  82.0502
 59.7556  6786.06  83.02
 59.9536  6868.8  83.4167
 60.1516  6721.13  83.4107
 60.1996  0.0000000E+00  0.0000000E+00