File: docs/examples/opeando_xrd/IS17_D/Data/IS17_D_fresh/17_D_fresh_f00008.xye
# /beamlines/bl04/projects/cycle2025-II/20250340211-lsimonelli/DATA/IS17_D_fresh/17_D_fresh_f00008.xye : mythproc.py merge -s 0.006 -l 0.5 -f /beamlines/bl04/inhouse/ff/FlatField/ff_20Nov2024rod8mm60s_17keV.raw -b True -c true -o xye /beamlines/bl04/projects/cycle2025-II/20250340211-lsimonelli/DATA/IS17_D_fresh/17_D_fresh_00008.dat
# IsMon = [6763472, 6761580, 6760198]  IsPos = [-1.4999, -2.4884, -3.4988]
# Wave = 0.4962  CalPath /beamlines/bl04/projects/cycle2025-II/20250340211-lsimonelli/DATA/Align/Si_Pos1_25keV_f00001.cal
# Date = 2025-09-24_23:10:47 Dt = 4.8000  Bin = 0.0060  <imon> = 6761750 +/- 1342 (Min/Max) 6760198 / 6763472
# icurr 249.9910  mocoIn 1.7050E-05  mocoOut 0.8002  i15 7.08037e+06  imon 6.76175e+06  i7 6.3333  iEMpd_timer 4.8000  iEMpd_1 3.6206E-08  iEMpd_2 7.8273E-08  iEMpd_3 1.6427E-08  iEMpd_4 4.6869E-08  iEMhp_timer 4.8000  iEMhp_1 4.8834E-06  iEMhp_2 -2.5229E-08  iEMhp_3 -2.5557E-08  iEMhp_4 -2.1092E-08
#      9776
 1.7416  69500.4  263.671
 1.9396  45796.4  214.305
 2.1376  33002.7  181.926
 2.3356  29967.2  172.994
 2.5336  28308.3  168.729
 2.7316  27203.5  165.527
 2.9296  26102.7  162.317
 3.1276  25082.1  158.636
 3.3256  24930.4  157.834
 3.5236  26659.6  163.018
 3.7216  24430  157.322
 3.9196  23894.1  154.798
 4.1176  23689  153.9
 4.3156  24946.1  158.098
 4.5136  27500.2  164.954
 4.7116  28540.1  169.208
 4.9096  28049.5  167.169
 5.1076  27719.8  166.768
 5.3056  28207.4  167.967
 5.5036  28249.8  167.966
 5.7016  28433.3  168.487
 5.8996  29271.9  170.134
 6.0976  29840.2  173.258
 6.2956  30578.6  174.715
 6.4936  31524.2  176.566
 6.6916  32051.7  179.064
 6.8896  32873.4  181.199
 7.0876  34066.4  185.209
 7.2856  34068.8  184.238
 7.4836  34576.4  184.914
 7.6816  35341.2  187.506
 7.8796  37285.7  192.596
 8.0776  38942  197.862
 8.2756  40674.5  200.76
 8.4736  41511.5  202.611
 8.6716  40914.9  201.805
 8.8696  40426.7  201.071
 9.0676  39789.6  198.829
 9.2656  38520  196.343
 9.4636  38426.1  194.438
 9.6616  37691  193.386
 9.8596  36447.3  189.592
 10.0576  34792.6  185.939
 10.2556  33360.5  182.517
 10.4536  31818.5  177.845
 10.6516  31213  176.334
 10.8496  30095.4  172.56
 11.0476  29566.2  171.064
 11.2456  28738.4  169.208
 11.4436  28260.7  166.943
 11.6416  29611.7  171.272
 11.8396  26903.2  163.446
 12.0376  27050.4  163.535
 12.2356  26671  162.796
 12.4336  26723.4  162.478
 12.6316  26238.8  161.256
 12.8296  26561  161.892
 13.0276  26998.3  163.402
 13.2256  27321.5  164.765
 13.4236  27183.6  164.104
 13.6216  26896.8  163.247
 13.8196  26924.8  163.093
 14.0176  26503.2  162.118
 14.2156  25815.3  159.003
 14.4136  24795  157.26
 14.6116  24405.2  155.186
 14.8096  23778.3  153.177
 15.0076  22456.3  152.823
 15.2056  22267.1  147.806
 15.4036  21168.2  145.003
 15.6016  20754.7  142.607
 15.7996  20228.8  141.084
 15.9976  19349.1  141.097
 16.1956  18740.3  136.594
 16.3936  18292  134.084
 16.5916  17843.8  133.093
 16.7896  17837.7  133.13
 16.9876  17779.1  134.433
 17.1856  17812.1  132.834
 17.3836  17235.6  130.56
 17.5816  16564  128.501
 17.7796  16511.1  128.218
 17.9776  16060.2  127.293
 18.1756  16137.2  126.236
 18.3736  15955  126.073
 18.5716  15747.1  124.989
 18.7696  15724.1  124.45
 18.9676  15330.8  122.678
 19.1656  15306.6  123.161
 19.3636  15374.9  123.647
 19.5616  15183.9  123.042
 19.7596  15174  122.386
 19.9576  15353.7  123.171
 20.1556  16208.3  127.124
 20.3536  15582.3  123.987
 20.5516  14943.1  121.882
 20.7496  14647  120.604
 20.9476  14409.3  119.354
 21.1456  14642  120.674
 21.3436  14266.5  119.059
 21.5416  14158.4  118.601
 21.7396  14206.4  118.644
 21.9376  13980.2  117.456
 22.1356  14063.8  117.93
 22.3336  14147.6  118.606
 22.5316  13892.8  117.63
 22.7296  14128.6  117.956
 22.9276  13904.7  117.718
 23.1256  14200.7  118.414
 23.3236  13818.7  117.364
 23.5216  13627.4  116.199
 23.7196  13460.5  115.432
 23.9176  13529.2  115.463
 24.1156  13172.7  114.432
 24.3136  12901.8  114.064
 24.5116  12956.5  113.813
 24.7096  12564.2  111.888
 24.9076  12377.4  111.078
 25.1056  12056.2  110.105
 25.3036  12186.5  110.196
 25.5016  12092.1  109.8
 25.6996  12082  109.318
 25.8976  11901.7  108.948
 26.0956  11941.4  109.164
 26.2936  11898.1  108.592
 26.4916  12049.2  109.16
 26.6896  11663.3  107.694
 26.8876  11482.2  106.704
 27.0856  11487  106.792
 27.2836  11397.4  106.258
 27.4816  11187  105.195
 27.6796  11130.8  105.327
 27.8776  10962.5  104.375
 28.0756  11077.4  105.226
 28.2736  11032.5  104.577
 28.4716  10676.2  102.925
 28.6696  10744.2  103.093
 28.8676  10675.8  103.125
 29.0656  10635.4  102.907
 29.2636  10680.5  102.902
 29.4616  10465.7  102.067
 29.6596  10759.3  103.032
 29.8576  10451.3  102.263
 30.0556  10274.9  101.265
 30.2536  10475.9  102.033
 30.4516  10259.8  100.613
 30.6496  10013.3  99.1169
 30.8476  10116.5  100.085
 31.0456  10103  99.9739
 31.2436  10139.4  99.3918
 31.4416  10103.2  99.392
 31.6396  10121  99.5274
 31.8376  10124  99.0806
 32.0356  9960.43  98.8622
 32.2336  9906.51  97.9449
 32.4316  9823.91  97.9746
 32.6296  9823.16  97.7984
 32.8276  9760.79  97.2598
 33.0256  9563.39  96.3359
 33.2236  9653.38  96.9399
 33.4216  9542.33  96.0629
 33.6196  9649.54  96.9102
 33.8176  9510.45  96.3881
 34.0156  9455.77  95.7041
 34.2136  9451.96  95.721
 34.4116  9292.27  95.0803
 34.6096  9351.6  95.2457
 34.8076  9057.65  94.1514
 35.0056  9114.73  94.1266
 35.2036  9170.27  94.642
 35.4016  9061.46  93.9992
 35.5996  8965.58  93.5349
 35.7976  8902.05  93.4947
 35.9956  8949.54  93.3737
 36.1936  8848.75  92.7125
 36.3916  8780.31  92.535
 36.5896  8806.16  93.6637
 36.7876  8682.15  92.3869
 36.9856  8505.58  91.481
 37.1836  8535.11  90.7177
 37.3816  8511.19  90.9769
 37.5796  8522.88  92.8002
 37.7776  8409.74  90.5126
 37.9756  8612.19  91.4778
 38.1736  8500.43  91.0841
 38.3716  8388.81  90.7589
 38.5696  8466.95  91.5766
 38.7676  8184.95  89.5304
 38.9656  8433.29  90.4977
 39.1636  8236.32  89.7085
 39.3616  8318.58  90.0893
 39.5596  8098.81  89.7453
 39.7576  8093.66  89.0893
 39.9556  8248.89  89.5723
 40.1536  8215.68  89.5973
 40.3516  8251.41  89.8047
 40.5496  8255.94  90.0949
 40.7476  8186.3  89.7193
 40.9456  8348.42  90.3467
 41.1436  8244.47  89.4955
 41.3416  8169.52  89.4332
 41.5396  8077.33  88.7278
 41.7376  8068.3  88.9465
 41.9356  7989.81  88.3662
 42.1336  8057.38  88.8896
 42.3316  8040.85  89.0059
 42.5296  8009.64  88.3399
 42.7276  8044.6  88.7724
 42.9256  8040.76  88.6247
 43.1236  7955.14  88.2619
 43.3216  7980.99  88.1523
 43.5196  7813.22  87.284
 43.7176  7966.11  88.5355
 43.9156  7899.99  88.0831
 44.1136  7807.88  87.1142
 44.3116  7840.06  87.3091
 44.5096  7765.54  87.2061
 44.7076  7850.77  87.6107
 44.9056  7730.58  86.7803
 45.1036  7682.54  86.1447
 45.3016  7558.5  85.953
 45.4996  7559.85  85.8959
 45.6976  7620.77  86.4206
 45.8956  7612.9  86.1823
 46.0936  7481.05  85.4324
 46.2916  7460.75  85.3072
 46.4896  7549.91  85.8532
 46.6876  7438.85  85.9306
 46.8856  7602.07  86.1268
 47.0836  7426.78  85.3725
 47.2816  7562.02  86.011
 47.4796  7604.1  86.3664
 47.6776  7496  86.7164
 47.8756  7437.32  85.5168
 48.0736  7485.47  86.2722
 48.2716  7410.59  85.6619
 48.4696  7587.99  86.2677
 48.6676  7514.99  86.4486
 48.8656  7446.31  85.7868
 49.0636  7387.21  85.3812
 49.2616  7363.9  85.2791
 49.4596  7448.99  85.3316
 49.6576  7468.97  85.6795
 49.8556  7425.49  85.4163
 50.0536  7328.88  85.3404
 50.2516  7271.84  85.1417
 50.4496  7445.52  85.7798
 50.6476  7368.78  85.0117
 50.8456  7289.48  84.6612
 51.0436  7367.67  85.5702
 51.2416  7330.65  85.0234
 51.4396  7229.6  84.8492
 51.6376  7257.34  84.8251
 51.8356  7299.16  84.6801
 52.0336  6955.62  83.1724
 52.2316  6970.92  83.6272
 52.4296  7116.97  84.1729
 52.6276  7133.35  84.3975
 52.8256  7023.57  83.2652
 53.0236  7122.64  84.5333
 53.2216  7051.4  84.141
 53.4196  6971.51  83.5977
 53.6176  6930.62  83.8394
 53.8156  6978.89  83.7891
 54.0136  7031.98  84.3007
 54.2116  6930.27  83.3273
 54.4096  6987.99  83.7388
 54.6076  6914.98  83.661
 54.8056  6894.98  83.3201
 55.0036  6923.22  83.9
 55.2016  6912.76  83.3551
 55.3996  6932.75  83.4557
 55.5976  6930.5  83.6329
 55.7956  6842.9  82.9143
 55.9936  6937.79  83.627
 56.1916  6894.36  83.3854
 56.3896  6915.47  83.5084
 56.5876  6804.01  83.3997
 56.7856  6815.32  82.9273
 56.9836  6770.13  82.4274
 57.1816  6780.24  82.8857
 57.3796  6888  83.3285
 57.5776  6888.06  83.2646
 57.7756  6818.4  83.5095
 57.9736  6825.92  83.2112
 58.1716  6867.5  83.7132
 58.3696  6924.59  83.807
 58.5676  6906.56  83.1149
 58.7656  6845.74  83.4887
 58.9636  6956.6  84.189
 59.1616  6819.24  83.4967
 59.3596  6911.93  83.2777
 59.5576  6802.31  82.6749
 59.7556  6834.26  83.3138
 59.9536  6950.7  83.912
 60.1516  6870.87  84.3342
 60.1996  0.0000000E+00  0.0000000E+00