File: docs/examples/opeando_xrd/IS17_D/Data/IS17_D_fresh/17_D_fresh_f00010.xye
# /beamlines/bl04/projects/cycle2025-II/20250340211-lsimonelli/DATA/IS17_D_fresh/17_D_fresh_f00010.xye : mythproc.py merge -s 0.006 -l 0.5 -f /beamlines/bl04/inhouse/ff/FlatField/ff_20Nov2024rod8mm60s_17keV.raw -b True -c true -o xye /beamlines/bl04/projects/cycle2025-II/20250340211-lsimonelli/DATA/IS17_D_fresh/17_D_fresh_00010.dat
# IsMon = [6756081, 6757386, 6750137]  IsPos = [-1.4999, -2.4884, -3.4989]
# Wave = 0.4962  CalPath /beamlines/bl04/projects/cycle2025-II/20250340211-lsimonelli/DATA/Align/Si_Pos1_25keV_f00001.cal
# Date = 2025-09-25_07:32:42 Dt = 4.8000  Bin = 0.0060  <imon> = 6754535 +/- 3155 (Min/Max) 6750137 / 6757386
# icurr 249.6095  mocoIn 1.7022E-05  mocoOut 0.7986  i15 7.07207e+06  imon 6.75453e+06  i7 6.0000  iEMpd_timer 4.8000  iEMpd_1 3.5270E-08  iEMpd_2 7.9864E-08  iEMpd_3 1.8098E-08  iEMpd_4 4.8197E-08  iEMhp_timer 4.8000  iEMhp_1 4.8756E-06  iEMhp_2 -2.5130E-08  iEMhp_3 -2.3846E-08  iEMhp_4 -2.2132E-08
#      9776
 1.7416  67766.6  260.365
 1.9396  44166.5  210.456
 2.1376  31209.7  176.917
 2.3356  27949.2  167.07
 2.5336  26894.8  164.465
 2.7316  24928.4  158.435
 2.9296  24019.1  155.688
 3.1276  23433.5  153.329
 3.3256  23586.7  153.5
 3.5236  25313.6  158.826
 3.7216  23226.3  153.398
 3.9196  23238.6  152.665
 4.1176  22637.2  150.443
 4.3156  24155.8  155.583
 4.5136  27022.3  163.509
 4.7116  27800.8  167.005
 4.9096  27197.5  164.612
 5.1076  26790  163.947
 5.3056  27108.6  164.673
 5.5036  27365.2  165.312
 5.7016  27980.2  167.139
 5.8996  28490.2  167.857
 6.0976  29239.2  171.508
 6.2956  30123.9  173.412
 6.4936  30691.2  174.212
 6.6916  31006.1  176.117
 6.8896  32126.4  179.135
 7.0876  33121.9  182.627
 7.2856  33274.4  182.078
 7.4836  34161.2  183.793
 7.6816  34819.6  186.115
 7.8796  36628.5  190.888
 8.0776  40244.6  201.141
 8.2756  40992.5  201.556
 8.4736  41366.4  202.256
 8.6716  41105.9  202.262
 8.8696  40938.7  202.372
 9.0676  40135.2  199.712
 9.2656  39214.6  198.131
 9.4636  38525.5  194.726
 9.6616  37753.9  193.582
 9.8596  36556.7  189.853
 10.0576  34926.6  186.275
 10.2556  33517.6  182.934
 10.4536  35247.5  187.16
 10.6516  35345.2  187.634
 10.8496  30850.2  174.725
 11.0476  30621.2  174.092
 11.2456  32069.3  178.748
 11.4436  29860.7  171.61
 11.6416  28671.2  168.534
 11.8396  27267.4  164.557
 12.0376  27189.5  163.962
 12.2356  28170.4  167.297
 12.4336  26977.8  163.255
 12.6316  26223.4  161.223
 12.8296  26801.5  162.623
 13.0276  27275.2  164.245
 13.2256  26969.6  163.701
 13.4236  27038.8  163.663
 13.6216  26758.4  162.829
 13.8196  27367.4  164.42
 14.0176  26266.1  161.271
 14.2156  25893.1  159.238
 14.4136  24593.3  156.62
 14.6116  24444  155.311
 14.8096  23433.3  152.07
 15.0076  22474.3  152.878
 15.2056  22292.6  147.898
 15.4036  21029.6  144.521
 15.6016  20677  142.339
 15.7996  20265  141.221
 15.9976  19189.2  141.138
 16.1956  18508.9  135.763
 16.3936  17940.8  132.808
 16.5916  17826.1  133.041
 16.7896  17990.3  133.716
 16.9876  17817.2  134.571
 17.1856  17796.5  132.761
 17.3836  16947.7  129.444
 17.5816  16514.6  128.297
 17.7796  16469.2  128.052
 17.9776  16494.6  129.011
 18.1756  17502.4  131.48
 18.3736  17233.5  131.02
 18.5716  15963.1  125.839
 18.7696  16088.8  125.887
 18.9676  15639.2  123.907
 19.1656  15570  124.236
 19.3636  15652.4  124.759
 19.5616  15385.2  123.873
 19.7596  15549.7  123.889
 19.9576  15975.2  125.644
 20.1556  15188.4  123.061
 20.3536  14928  121.35
 20.5516  14625.6  120.582
 20.7496  14520.1  120.082
 20.9476  14619.9  120.222
 21.1456  14929.2  121.852
 21.3436  14419.7  119.688
 21.5416  14177.2  118.682
 21.7396  14148  118.397
 21.9376  14184.6  118.319
 22.1356  14415.1  119.38
 22.3336  14361.2  119.488
 22.5316  14090.7  118.462
 22.7296  13918.8  117.07
 22.9276  13891.5  117.663
 23.1256  14466.5  119.519
 23.3236  13637  116.601
 23.5216  13379.3  115.15
 23.7196  13476  115.519
 23.9176  13254.5  114.301
 24.1156  13302.4  115.007
 24.3136  12931.5  114.186
 24.5116  13105.2  114.452
 24.7096  12844.9  113.12
 24.9076  12420.5  111.259
 25.1056  12278  111.107
 25.3036  12270.5  110.571
 25.5016  12299  110.737
 25.6996  12202.9  109.864
 25.8976  12242.8  110.499
 26.0956  12233.7  110.499
 26.2936  12015.3  109.118
 26.4916  12113  109.442
 26.6896  11652.3  107.646
 26.8876  11702.5  107.723
 27.0856  11538  107.038
 27.2836  11348.9  106.027
 27.4816  11515.6  106.723
 27.6796  11265.9  105.963
 27.8776  11248.2  105.725
 28.0756  11180.4  105.715
 28.2736  11225.5  105.488
 28.4716  10692.2  103.002
 28.6696  10929.2  103.978
 28.8676  10874  104.08
 29.0656  10671.8  103.084
 29.2636  10681.3  102.909
 29.4616  10582.1  102.632
 29.6596  10756.7  103.019
 29.8576  10405.8  102.036
 30.0556  10566.6  102.706
 30.2536  10656.6  102.911
 30.4516  10300.7  100.826
 30.6496  10372.6  100.892
 30.8476  10247.2  100.741
 31.0456  10270.2  100.805
 31.2436  10036.1  98.8912
 31.4416  10043.7  99.0908
 31.6396  10334.8  100.565
 31.8376  10147.3  99.1843
 32.0356  10176.4  99.9166
 32.2336  9963.68  98.2257
 32.4316  9850.41  98.1032
 32.6296  9863.44  97.9954
 32.8276  9820.7  97.5427
 33.0256  9827.14  97.6519
 33.2236  9695.73  97.154
 33.4216  9717.77  96.949
 33.6196  9624.08  96.7804
 33.8176  9599.48  96.8383
 34.0156  9399.99  95.4279
 34.2136  9490.16  95.9106
 34.4116  9264.46  94.9373
 34.6096  9256.25  94.7544
 34.8076  9224.08  95.0164
 35.0056  9194.87  94.5316
 35.2036  9101.9  94.2845
 35.4016  9077.14  94.0775
 35.5996  9058.8  94.022
 35.7976  9006.49  94.0405
 35.9956  9039.67  93.8434
 36.1936  8957.52  93.2761
 36.3916  8865.25  92.9803
 36.5896  8974.95  94.5653
 36.7876  8864.27  93.3649
 36.9856  8422.59  91.0327
 37.1836  8647.33  91.3192
 37.3816  8534.43  91.106
 37.5796  8503.27  92.6938
 37.7776  8677.08  91.9491
 37.9756  8451.22  90.6268
 38.1736  8656.57  91.9247
 38.3716  8441.62  91.0521
 38.5696  8386.35  91.1333
 38.7676  8418.5  90.7887
 38.9656  8401.24  90.3138
 39.1636  8354.81  90.3464
 39.3616  8409.44  90.5691
 39.5596  8136.98  89.956
 39.7576  8106.56  89.1662
 39.9556  8251.23  89.5903
 40.1536  8297.53  90.0418
 40.3516  8198.85  89.5184
 40.5496  8202.3  89.7948
 40.7476  8280.64  90.2319
 40.9456  8306.02  90.1178
 41.1436  8178.11  89.1354
 41.3416  8179.43  89.4873
 41.5396  8197.1  89.386
 41.7376  8164.15  89.4694
 41.9356  8104.69  89.0031
 42.1336  8105.2  89.1537
 42.3316  8099.04  89.3289
 42.5296  7979.44  88.1754
 42.7276  8123.75  89.2149
 42.9256  8124.04  89.0761
 43.1236  7973.24  88.3582
 43.3216  7932.91  87.8895
 43.5196  7961.19  88.1012
 43.7176  7916.74  88.26
 43.9156  7844.73  87.7748
 44.1136  7974.72  88.0403
 44.3116  7992.21  88.1592
 44.5096  7898.01  87.9433
 44.7076  7905.11  87.9131
 44.9056  7785.1  87.0991
 45.1036  7769.36  86.6431
 45.3016  7607.74  86.2418
 45.4996  7596.93  86.1157
 45.6976  7533.64  85.9339
 45.8956  7591.8  86.0548
 46.0936  7556.57  85.8512
 46.2916  7742.34  86.8892
 46.4896  7610.26  86.1863
 46.6876  7595.38  86.8247
 46.8856  7572.71  85.9602
 47.0836  7485.36  85.7072
 47.2816  7493.47  85.6186
 47.4796  7566.81  86.1637
 47.6776  7491.58  86.6859
 47.8756  7496.39  85.87
 48.0736  7497.87  86.3511
 48.2716  7496.91  86.1541
 48.4696  7479.65  85.6434
 48.6676  7464.3  86.1587
 48.8656  7620.57  86.7852
 49.0636  7440.27  85.6898
 49.2616  7401.72  85.4994
 49.4596  7440.48  85.283
 49.6576  7456.56  85.6071
 49.8556  7440.1  85.5007
 50.0536  7361.12  85.5288
 50.2516  7385.81  85.8072
 50.4496  7414.07  85.604
 50.6476  7533.55  85.9717
 50.8456  7305.68  84.7634
 51.0436  7419.55  85.8759
 51.2416  7392.93  85.3908
 51.4396  7275.17  85.1125
 51.6376  7399.96  85.6495
 51.8356  7381.16  85.1477
 52.0336  7171.01  84.4577
 52.2316  7081.17  84.2879
 52.4296  7144.26  84.3492
 52.6276  7204.56  84.8278
 52.8256  7256.24  84.6583
 53.0236  7119.65  84.5071
 53.2216  7067.92  84.2332
 53.4196  7094.19  84.3227
 53.6176  6867.52  83.4483
 53.8156  7048.02  84.2014
 54.0136  7139.45  84.9488
 54.2116  7001.19  83.7601
 54.4096  7054.65  84.1322
 54.6076  6958.78  83.9277
 54.8056  6984.27  83.8605
 55.0036  6945.15  84.0374
 55.2016  6903.09  83.3588
 55.3996  6954.46  83.5827
 55.5976  7014.32  84.1395
 55.7956  6893.24  83.2153
 55.9936  6840.13  83.0365
 56.1916  6872.19  83.2514
 56.3896  6946.23  83.6929
 56.5876  6768.34  83.1735
 56.7856  6843.49  83.1048
 56.9836  6835.14  82.8234
 57.1816  6962.01  83.8928
 57.3796  6939.31  83.6374
 57.5776  6874.12  83.1801
 57.7756  6863.03  83.7828
 57.9736  6781.59  82.9407
 58.1716  6915.56  84.016
 58.3696  6899.09  83.6455
 58.5676  6998.82  83.6697
 58.7656  6969.19  84.2372
 58.9636  6932.3  84.043
 59.1616  6829.49  83.5612
 59.3596  6980.98  83.7096
 59.5576  6957.58  83.6308
 59.7556  6825.31  83.2768
 59.9536  7017.85  84.3342
 60.1516  6806.08  83.9534
 60.1996  6918.46  88.0118