File: docs/examples/opeando_xrd/IS17_D/Data/IS17_D_fresh/17_D_fresh_f00006.xye
# /beamlines/bl04/projects/cycle2025-II/20250340211-lsimonelli/DATA/IS17_D_fresh/17_D_fresh_f00006.xye : mythproc.py merge -s 0.006 -l 0.5 -f /beamlines/bl04/inhouse/ff/FlatField/ff_20Nov2024rod8mm60s_17keV.raw -b True -c true -o xye /beamlines/bl04/projects/cycle2025-II/20250340211-lsimonelli/DATA/IS17_D_fresh/17_D_fresh_00006.dat
# IsMon = [6769041, 6774065, 6769917]  IsPos = [-1.4999, -2.4884, -3.4988]
# Wave = 0.4962  CalPath /beamlines/bl04/projects/cycle2025-II/20250340211-lsimonelli/DATA/Align/Si_Pos1_25keV_f00001.cal
# Date = 2025-09-24_14:47:44 Dt = 4.8000  Bin = 0.0060  <imon> = 6771008 +/- 2191 (Min/Max) 6769041 / 6774065
# icurr 250.7834  mocoIn 1.7104E-05  mocoOut 0.8022  i15 7.08672e+06  imon 6.77101e+06  i7 9.0000  iEMpd_timer 4.8000  iEMpd_1 3.4055E-08  iEMpd_2 7.7806E-08  iEMpd_3 1.5672E-08  iEMpd_4 4.7496E-08  iEMhp_timer 4.8000  iEMhp_1 4.8978E-06  iEMhp_2 -2.6433E-08  iEMhp_3 -2.4296E-08  iEMhp_4 -2.3100E-08
#      9776
 1.7416  67624.8  260.16
 1.9396  43351.6  208.566
 2.1376  30701  175.515
 2.3356  27924.7  167.04
 2.5336  27553.1  166.509
 2.7316  24911.1  158.4
 2.9296  23704.6  154.683
 3.1276  23038  152.054
 3.3256  22999.4  151.588
 3.5236  24775.9  157.142
 3.7216  22583  151.26
 3.9196  22764.2  151.104
 4.1176  22218  149.048
 4.3156  23693  154.073
 4.5136  27036.7  163.552
 4.7116  27522.1  166.165
 4.9096  27031.7  164.11
 5.1076  26379.9  162.699
 5.3056  27000.2  164.334
 5.5036  26783.2  163.539
 5.7016  27167.3  164.692
 5.8996  27954.9  166.266
 6.0976  28788.5  170.193
 6.2956  29266.8  170.918
 6.4936  30370.6  173.306
 6.6916  30648.3  175.097
 6.8896  31872.5  178.421
 7.0876  32749.5  181.596
 7.2856  32783.2  180.729
 7.4836  33727  182.63
 7.6816  34471.2  185.182
 7.8796  36319.2  190.061
 8.0776  41020.7  203.047
 8.2756  41070.9  201.709
 8.4736  40982.7  201.287
 8.6716  40731.8  201.321
 8.8696  40965.1  202.429
 9.0676  40574.6  200.802
 9.2656  38367.7  195.983
 9.4636  37919.4  193.163
 9.6616  37210.8  192.169
 9.8596  35882.4  188.119
 10.0576  34539.3  185.253
 10.2556  32835.6  181.074
 10.4536  37250.7  192.436
 10.6516  38830  196.669
 10.8496  30368.1  173.346
 11.0476  30232  172.98
 11.2456  33653.8  183.095
 11.4436  29146.6  169.54
 11.6416  28279.5  167.378
 11.8396  26884.6  163.407
 12.0376  26694.3  162.45
 12.2356  28932.8  169.543
 12.4336  27433.6  164.629
 12.6316  25845.3  160.053
 12.8296  26707.6  162.333
 13.0276  27240.2  164.126
 13.2256  26572.1  162.493
 13.4236  26981.1  163.481
 13.6216  26631.2  162.452
 13.8196  28053.3  166.481
 14.0176  26392.8  161.769
 14.2156  25667.2  158.543
 14.4136  24329.6  155.767
 14.6116  24123.7  154.291
 14.8096  23211.3  151.337
 15.0076  22319.4  152.382
 15.2056  21778  146.16
 15.4036  21044.5  144.557
 15.6016  20452.7  141.547
 15.7996  20176.7  140.883
 15.9976  18790.5  139.021
 16.1956  18174.2  134.531
 16.3936  17881.5  132.59
 16.5916  17904.2  133.33
 16.7896  17748.8  132.815
 16.9876  17654  133.968
 17.1856  17503  131.668
 17.3836  16469.5  127.623
 17.5816  16570.2  128.516
 17.7796  16397.9  127.78
 17.9776  16693  129.78
 18.1756  17694.4  132.194
 18.3736  18158.7  134.487
 18.5716  15826.3  125.3
 18.7696  16042.5  125.705
 18.9676  15282.5  122.491
 19.1656  15452.1  123.752
 19.3636  15334.2  123.48
 19.5616  15390.4  123.892
 19.7596  15107.9  122.129
 19.9576  15854.6  125.157
 20.1556  14952.9  122.096
 20.3536  15011.5  121.685
 20.5516  14577  120.381
 20.7496  14351.5  119.374
 20.9476  14635.7  120.295
 21.1456  14945.6  121.908
 21.3436  14242  118.958
 21.5416  14086.8  118.303
 21.7396  13879.1  117.263
 21.9376  14095.6  117.933
 22.1356  14360.3  119.163
 22.3336  14424.7  119.741
 22.5316  14188.3  118.857
 22.7296  13885  116.913
 22.9276  13692.3  116.8
 23.1256  14332  118.948
 23.3236  13633.2  116.594
 23.5216  13433.5  115.391
 23.7196  13449.5  115.395
 23.9176  13310.9  114.544
 24.1156  13131  114.265
 24.3136  13065.1  114.784
 24.5116  13044.4  114.2
 24.7096  12725.8  112.603
 24.9076  12476.9  111.531
 25.1056  12177.6  110.659
 25.3036  12234.2  110.401
 25.5016  12316.8  110.818
 25.6996  12138.9  109.579
 25.8976  12479.1  111.56
 26.0956  12258.1  110.6
 26.2936  11983.9  108.977
 26.4916  11972.8  108.812
 26.6896  11628.8  107.536
 26.8876  11543  106.994
 27.0856  11687.1  107.712
 27.2836  11358.2  106.07
 27.4816  11529  106.792
 27.6796  11190.3  105.609
 27.8776  11494.8  106.883
 28.0756  11159.9  105.608
 28.2736  11201.4  105.375
 28.4716  10855.1  103.777
 28.6696  10961.7  104.13
 28.8676  10750.5  103.476
 29.0656  10640.8  102.933
 29.2636  10687  102.934
 29.4616  10470.4  102.077
 29.6596  10711.4  102.788
 29.8576  10387.8  101.936
 30.0556  10691.9  103.289
 30.2536  10471.6  102.002
 30.4516  10421.3  101.414
 30.6496  10246.8  100.28
 30.8476  10208.8  100.553
 31.0456  10147  100.207
 31.2436  9976.17  98.6049
 31.4416  9972.07  98.747
 31.6396  10620.2  101.962
 31.8376  10192  99.4124
 32.0356  10027.8  99.1975
 32.2336  9927.01  98.057
 32.4316  9860.6  98.1501
 32.6296  9687.79  97.1197
 32.8276  9798.6  97.4354
 33.0256  9697.52  97.0132
 33.2236  9646.37  96.9086
 33.4216  9577.43  96.2395
 33.6196  9607.73  96.6953
 33.8176  9485.3  96.26
 34.0156  9402.2  95.4428
 34.2136  9292.67  94.9181
 34.4116  9230.6  94.7559
 34.6096  9228.11  94.6171
 34.8076  9224.9  95.0192
 35.0056  9258  94.8687
 35.2036  9177.11  94.676
 35.4016  9086.01  94.1261
 35.5996  8935.54  93.3801
 35.7976  8833.14  93.1266
 35.9956  9129.94  94.3109
 36.1936  8917.94  93.0729
 36.3916  8787.56  92.5697
 36.5896  9000.62  94.6982
 36.7876  8767.55  92.8436
 36.9856  8503.46  91.4545
 37.1836  8563.91  90.8677
 37.3816  8642.88  91.6693
 37.5796  8568.49  93.0487
 37.7776  8520.74  91.1259
 37.9756  8585.56  91.3528
 38.1736  8687.28  92.0941
 38.3716  8440.43  91.0561
 38.5696  8339.05  90.8822
 38.7676  8257.8  89.9297
 38.9656  8449.09  90.5846
 39.1636  8332.66  90.2362
 39.3616  8318.36  90.0797
 39.5596  8106.48  89.7877
 39.7576  8150.74  89.4095
 39.9556  8275.55  89.7234
 40.1536  8321.67  90.1753
 40.3516  8295.09  90.0333
 40.5496  8232.62  89.9657
 40.7476  8220.77  89.9012
 40.9456  8231.19  89.7096
 41.1436  8240.93  89.4815
 41.3416  8115.23  89.1323
 41.5396  8122.02  88.9742
 41.7376  8168.99  89.494
 41.9356  8056.23  88.7361
 42.1336  8119.31  89.2369
 42.3316  8101.47  89.3374
 42.5296  8079.81  88.7288
 42.7276  8118.19  89.1834
 42.9256  8026.21  88.5429
 43.1236  7947.72  88.2197
 43.3216  7962.71  88.0537
 43.5196  7857.66  87.5304
 43.7176  7851.87  87.8905
 43.9156  8022.63  88.7416
 44.1136  7854.95  87.3655
 44.3116  7956.69  87.9496
 44.5096  7860.73  87.7233
 44.7076  7939.84  88.0923
 44.9056  7742.55  86.8596
 45.1036  7742.72  86.4898
 45.3016  7566.05  86.0071
 45.4996  7646.1  86.3898
 45.6976  7574.3  86.1542
 45.8956  7646.33  86.3715
 46.0936  7521.47  85.6753
 46.2916  7536.08  85.7354
 46.4896  7657.71  86.4637
 46.6876  7583.07  86.7622
 46.8856  7663.43  86.4737
 47.0836  7440.95  85.4528
 47.2816  7517.51  85.7522
 47.4796  7450.45  85.4941
 47.6776  7448.46  86.4466
 47.8756  7493.02  85.8378
 48.0736  7486.94  86.2849
 48.2716  7500.79  86.1741
 48.4696  7499.06  85.7588
 48.6676  7504.3  86.3868
 48.8656  7540.08  86.3241
 49.0636  7384.02  85.3685
 49.2616  7431.17  85.6631
 49.4596  7395.44  85.018
 49.6576  7376.6  85.1459
 49.8556  7461.11  85.6196
 50.0536  7320.05  85.2801
 50.2516  7406.01  85.9304
 50.4496  7394.06  85.4838
 50.6476  7360.8  84.9724
 50.8456  7291.39  84.6715
 51.0436  7259.55  84.9346
 51.2416  7308.79  84.8901
 51.4396  7190.46  84.6044
 51.6376  7289.15  84.9968
 51.8356  7312.21  84.7452
 52.0336  7042.85  83.7078
 52.2316  7053.84  84.1239
 52.4296  7119.16  84.197
 52.6276  7143.38  84.4589
 52.8256  7181.21  84.2285
 53.0236  7102.45  84.4196
 53.2216  6999.74  83.8347
 53.4196  7072.83  84.2056
 53.6176  7024.26  84.4013
 53.8156  6994.89  83.8917
 54.0136  7094.07  84.672
 54.2116  7065.15  84.1468
 54.4096  7112.26  84.4646
 54.6076  6994.64  84.1443
 54.8056  6934.13  83.5559
 55.0036  6976.54  84.2276
 55.2016  6853.1  82.9993
 55.3996  7005.79  83.8882
 55.5976  6912.48  83.5282
 55.7956  6984.49  83.7682
 55.9936  6834.02  82.9989
 56.1916  6864.39  83.1978
 56.3896  6954.64  83.737
 56.5876  6812.28  83.4526
 56.7856  6772.89  82.6619
 56.9836  6746.19  82.2771
 57.1816  6887.33  83.5453
 57.3796  6866.25  83.1954
 57.5776  6886.29  83.2545
 57.7756  6699.58  82.7732
 57.9736  6725.41  82.5962
 58.1716  6894.96  83.8791
 58.3696  6981.05  84.1339
 58.5676  6963.36  83.4567
 58.7656  6901.03  83.8132
 58.9636  6865.04  83.6264
 59.1616  6917.1  84.0849
 59.3596  6922.88  83.3411
 59.5576  7084.59  84.37
 59.7556  6853.49  83.4281
 59.9536  7110.2  84.8665
 60.1516  6838.51  84.1325
 60.1996  0.0000000E+00  0.0000000E+00