File: docs/examples/opeando_xrd/IS17_D/Data/IS17_D_fresh/17_D_fresh_f00002.xye
# /beamlines/bl04/projects/cycle2025-II/20250340211-lsimonelli/DATA/IS17_D_fresh/17_D_fresh_f00002.xye : mythproc.py merge -s 0.006 -l 0.5 -f /beamlines/bl04/inhouse/ff/FlatField/ff_20Nov2024rod8mm60s_17keV.raw -b True -c true -o xye /beamlines/bl04/projects/cycle2025-II/20250340211-lsimonelli/DATA/IS17_D_fresh/17_D_fresh_00002.dat
# IsMon = [6772454, 6771461, 6774924]  IsPos = [-1.5000, -2.4885, -3.4986]
# Wave = 0.4962  CalPath /beamlines/bl04/projects/cycle2025-II/20250340211-lsimonelli/DATA/Align/Si_Pos1_25keV_f00001.cal
# Date = 2025-09-23_22:04:53 Dt = 4.8000  Bin = 0.0060  <imon> = 6772946 +/- 1456 (Min/Max) 6771461 / 6774924
# icurr 251.3723  mocoIn 1.7157E-05  mocoOut 0.8047  i15 7.08863e+06  imon 6.77295e+06  i7 8.6667  iEMpd_timer 4.8000  iEMpd_1 3.5657E-08  iEMpd_2 7.7942E-08  iEMpd_3 1.7574E-08  iEMpd_4 4.8207E-08  iEMhp_timer 4.8000  iEMhp_1 4.9123E-06  iEMhp_2 -2.4573E-08  iEMhp_3 -2.3443E-08  iEMhp_4 -2.0217E-08
#      9776
 1.7416  66430.7  257.825
 1.9396  42856  207.352
 2.1376  29868.5  173.1
 2.3356  26960.5  164.113
 2.5336  28443.9  169.16
 2.7316  24284.1  156.407
 2.9296  22815.6  151.769
 3.1276  22341.9  149.749
 3.3256  22307.8  149.319
 3.5236  24167.2  155.373
 3.7216  22225.4  150.057
 3.9196  22516.5  150.275
 4.1176  21798.2  147.627
 4.3156  23136  152.244
 4.5136  26603.3  162.246
 4.7116  27138.4  165.003
 4.9096  26419.7  162.236
 5.1076  25865.5  161.101
 5.3056  26488.8  162.658
 5.5036  25999.7  161.154
 5.7016  26395.1  162.33
 5.8996  27078.5  163.636
 6.0976  27905.4  167.554
 6.2956  28761.7  169.438
 6.4936  29420.9  170.564
 6.6916  29932.2  173.044
 6.8896  31309.2  176.843
 7.0876  32093.6  179.685
 7.2856  31823.3  178.063
 7.4836  32835.9  180.198
 7.6816  33593.3  182.809
 7.8796  35385.4  187.614
 8.0776  40154.7  200.902
 8.2756  40468.9  200.216
 8.4736  40045.8  198.985
 8.6716  39675  198.719
 8.8696  40430  201.054
 9.0676  39551.8  198.218
 9.2656  37129.6  192.751
 9.4636  36844.8  190.364
 9.6616  35681.6  188.137
 9.8596  34846.7  185.396
 10.0576  33158  181.54
 10.2556  31506.3  177.388
 10.4536  37221.4  192.38
 10.6516  38201.5  195.12
 10.8496  29156  169.841
 11.0476  29261.7  170.133
 11.2456  32676.2  180.43
 11.4436  27897.7  165.862
 11.6416  27498.9  165.047
 11.8396  26259.9  161.488
 12.0376  25781.7  159.624
 12.2356  27611.7  165.673
 12.4336  26633.8  162.203
 12.6316  24869  156.997
 12.8296  25806.8  159.573
 13.0276  26429.9  161.67
 13.2256  25768  160.006
 13.4236  26055.3  160.658
 13.6216  25690.7  159.542
 13.8196  26757  162.581
 14.0176  25718.1  159.684
 14.2156  24950.2  156.315
 14.4136  23601.6  153.422
 14.6116  23339.4  151.761
 14.8096  22558.7  149.184
 15.0076  21504.2  149.556
 15.2056  21100.5  143.876
 15.4036  20255.1  141.829
 15.6016  19798.7  139.268
 15.7996  19313.9  137.837
 15.9976  18269.8  137.08
 16.1956  17589.6  132.328
 16.3936  17356.8  130.605
 16.5916  17235.6  130.796
 16.7896  17273  131.001
 16.9876  17029.9  131.58
 17.1856  17167.6  130.428
 17.3836  15981.3  125.724
 17.5816  15979.4  126.222
 17.7796  16044.5  126.41
 17.9776  16175.1  127.741
 18.1756  17506.6  131.474
 18.3736  17370.3  131.548
 18.5716  15279.9  123.12
 18.7696  15472.5  123.442
 18.9676  15017.8  121.421
 19.1656  14884.1  121.448
 19.3636  14931.5  121.853
 19.5616  14810.8  121.523
 19.7596  14764.9  120.726
 19.9576  15326.6  123.059
 20.1556  14701.7  121.069
 20.3536  14453.7  119.393
 20.5516  14133.1  118.531
 20.7496  13887.9  117.341
 20.9476  14404.8  119.324
 21.1456  14607.3  120.525
 21.3436  13813.9  117.151
 21.5416  13841.7  117.26
 21.7396  13437.3  115.383
 21.9376  13718.5  116.344
 22.1356  13991.8  117.653
 22.3336  13926.9  117.649
 22.5316  13718.4  116.878
 22.7296  13551.1  115.497
 22.9276  13428.4  115.676
 23.1256  13938.6  117.299
 23.3236  13295.4  115.113
 23.5216  13125.2  114.036
 23.7196  12968.8  113.52
 23.9176  12849.2  112.526
 24.1156  12877.6  113.137
 24.3136  12532.5  112.429
 24.5116  12609.8  112.295
 24.7096  12602.9  112.076
 24.9076  12131.2  109.969
 25.1056  12125.2  110.144
 25.3036  11838.2  108.614
 25.5016  11866  108.766
 25.6996  11877.5  108.392
 25.8976  11906.5  108.964
 26.0956  11908.9  109.009
 26.2936  11830.7  108.282
 26.4916  11690.3  107.519
 26.6896  11321.3  106.106
 26.8876  11145.4  105.131
 27.0856  11473  106.681
 27.2836  11090.8  104.98
 27.4816  11098.9  104.775
 27.6796  10910.4  104.279
 27.8776  11199.3  105.497
 28.0756  10903.2  104.393
 28.2736  10959.4  104.227
 28.4716  10512  102.131
 28.6696  10698.9  102.875
 28.8676  10459.4  102.071
 29.0656  10372.9  101.627
 29.2636  10320.1  101.065
 29.4616  10257  101.035
 29.6596  10432.4  101.442
 29.8576  10086.6  100.452
 30.0556  10397.9  101.863
 30.2536  10248.1  100.911
 30.4516  10102.7  99.8362
 30.6496  9929.73  98.6981
 30.8476  9904.86  99.0282
 31.0456  9984.18  99.3861
 31.2436  9791.69  97.6738
 31.4416  9846.2  98.1289
 31.6396  10229.4  100.076
 31.8376  9831.03  97.6496
 32.0356  9798.2  98.0661
 32.2336  9502.22  95.9431
 32.4316  9670.01  97.2049
 32.6296  9406.56  95.6337
 32.8276  9477.52  95.8281
 33.0256  9381.84  95.4185
 33.2236  9362.55  95.4682
 33.4216  9316.36  94.9135
 33.6196  9301.18  95.1449
 33.8176  9255.18  95.0832
 34.0156  9204.36  94.431
 34.2136  9035.75  93.5901
 34.4116  9018.91  93.6651
 34.6096  9128.22  94.1041
 34.8076  8881.33  93.2393
 35.0056  9008.45  93.5835
 35.2036  8892.18  93.1868
 35.4016  8852.81  92.9119
 35.5996  8743.57  92.3723
 35.7976  8643.27  92.123
 35.9956  8886.3  93.0442
 36.1936  8741.71  92.144
 36.3916  8592.93  91.5419
 36.5896  8762.83  93.924
 36.7876  8522.49  91.532
 36.9856  8303.78  90.3788
 37.1836  8314.19  89.5317
 37.3816  8335.36  90.0199
 37.5796  8227.45  91.1787
 37.7776  8187.03  89.3131
 37.9756  8391.05  90.3003
 38.1736  8419.11  90.6459
 38.3716  8177.43  89.6004
 38.5696  8116.83  89.6581
 38.7676  8004.72  88.5506
 38.9656  8098.3  88.6928
 39.1636  8139.81  89.1696
 39.3616  8162.52  89.2523
 39.5596  7894.12  88.6103
 39.7576  7835.46  87.6604
 39.9556  8031.72  88.383
 40.1536  8059.92  88.7391
 40.3516  8076.2  88.9257
 40.5496  7949.53  88.1981
 40.7476  7968.93  88.5229
 40.9456  8031.58  88.6166
 41.1436  7980.65  88.0567
 41.3416  7957.34  88.2609
 41.5396  7855.03  87.5036
 41.7376  8005.04  88.5937
 41.9356  7828.43  87.4739
 42.1336  7844.09  87.71
 42.3316  7886.45  88.1459
 42.5296  7847.16  87.4397
 42.7276  7764.46  87.2196
 42.9256  7828.56  87.4448
 43.1236  7733.91  87.0261
 43.3216  7803  87.2659
 43.5196  7654.7  86.3976
 43.7176  7646.57  86.7403
 43.9156  7655.63  86.7039
 44.1136  7699.83  86.503
 44.3116  7710.91  86.5754
 44.5096  7645.34  86.5214
 44.7076  7799.48  87.3172
 44.9056  7432.74  85.1
 45.1036  7490.83  85.06
 45.3016  7410.63  85.1009
 45.4996  7405.36  85.0063
 45.6976  7408.28  85.1871
 45.8956  7417.83  85.0743
 46.0936  7401.45  84.7495
 46.2916  7368.05  84.7852
 46.4896  7453.56  85.3142
 46.6876  7343.1  85.3903
 46.8856  7362.26  84.8712
 47.0836  7219.52  84.1712
 47.2816  7295.42  84.4794
 47.4796  7430.45  85.3823
 47.6776  7217.05  85.0874
 47.8756  7308.09  84.779
 48.0736  7226.37  84.7408
 48.2716  7270.31  84.8441
 48.4696  7312.41  84.6862
 48.6676  7239.66  84.8447
 48.8656  7374.92  85.3745
 49.0636  7314.41  84.9649
 49.2616  7283.22  84.7932
 49.4596  7244.04  84.1466
 49.6576  7250.73  84.4174
 49.8556  7187.76  84.0269
 50.0536  7144.86  84.26
 50.2516  7152.66  84.4156
 50.4496  7238.21  84.58
 50.6476  7192.57  83.99
 50.8456  7159.02  83.9064
 51.0436  7153.18  84.3146
 51.2416  7235.16  84.4566
 51.4396  7047.45  83.7644
 51.6376  7055.07  83.6313
 51.8356  7099.47  83.5181
 52.0336  6773.28  82.0736
 52.2316  6814.6  82.6739
 52.4296  6915.43  82.9664
 52.6276  6865.37  82.7762
 52.8256  7015.67  83.2241
 53.0236  6840.12  82.849
 53.2216  6907.63  83.2475
 53.4196  6759.24  82.3272
 53.6176  6832.35  83.2585
 53.8156  6739.25  82.3523
 54.0136  6766.45  82.691
 54.2116  6798.83  82.539
 54.4096  6835.39  82.8231
 54.6076  6763.19  82.7364
 54.8056  6691.78  82.0783
 55.0036  6676.27  82.2592
 55.2016  6856.2  82.9439
 55.3996  6789.12  82.5803
 55.5976  6714.42  82.3136
 55.7956  6663.61  81.8173
 55.9936  6609.87  81.6274
 56.1916  6767.61  82.596
 56.3896  6750.51  82.4974
 56.5876  6584.75  82.0401
 56.7856  6689.2  82.1508
 56.9836  6580.84  81.2646
 57.1816  6593.92  81.7361
 57.3796  6724.39  82.302
 57.5776  6748.17  82.4154
 57.7756  6668.41  82.5833
 57.9736  6747.19  82.7315
 58.1716  6670.52  82.5006
 58.3696  6710.99  82.5004
 58.5676  6754.82  82.2137
 58.7656  6746.74  82.8733
 58.9636  6659.59  82.3653
 59.1616  6698.89  82.753
 59.3596  6774.3  82.4228
 59.5576  6694.28  81.9943
 59.7556  6675.14  82.3167
 59.9536  6766.44  82.7708
 60.1516  6695.34  83.2283
 60.1996  0.0000000E+00  0.0000000E+00