File: docs/examples/opeando_xrd/IS17_D/Data/IS17_D_fresh/17_D_fresh_f00009.xye
# /beamlines/bl04/projects/cycle2025-II/20250340211-lsimonelli/DATA/IS17_D_fresh/17_D_fresh_f00009.xye : mythproc.py merge -s 0.006 -l 0.5 -f /beamlines/bl04/inhouse/ff/FlatField/ff_20Nov2024rod8mm60s_17keV.raw -b True -c true -o xye /beamlines/bl04/projects/cycle2025-II/20250340211-lsimonelli/DATA/IS17_D_fresh/17_D_fresh_00009.dat
# IsMon = [6785564, 6790569, 6789166]  IsPos = [-1.4999, -2.4884, -3.4988]
# Wave = 0.4962  CalPath /beamlines/bl04/projects/cycle2025-II/20250340211-lsimonelli/DATA/Align/Si_Pos1_25keV_f00001.cal
# Date = 2025-09-25_03:21:54 Dt = 4.8000  Bin = 0.0060  <imon> = 6788433 +/- 2108 (Min/Max) 6785564 / 6790569
# icurr 252.1271  mocoIn 1.7202E-05  mocoOut 0.8066  i15 7.10599e+06  imon 6.78843e+06  i7 6.6667  iEMpd_timer 4.8000  iEMpd_1 3.5229E-08  iEMpd_2 7.9096E-08  iEMpd_3 1.7367E-08  iEMpd_4 4.8467E-08  iEMhp_timer 4.8000  iEMhp_1 4.9263E-06  iEMhp_2 -2.5139E-08  iEMhp_3 -2.5193E-08  iEMhp_4 -2.1774E-08
#      9776
 1.7416  69700.5  264.14
 1.9396  45588.7  213.896
 2.1376  32746  181.278
 2.3356  29359.5  171.289
 2.5336  27328  165.838
 2.7316  25959.3  161.712
 2.9296  25162.4  159.381
 3.1276  24612.1  157.178
 3.3256  24646.9  156.933
 3.5236  26418  162.276
 3.7216  24266.6  156.793
 3.9196  23928.9  154.919
 4.1176  23867.9  154.493
 4.3156  25106.8  158.603
 4.5136  27453.1  164.808
 4.7116  28513.4  169.129
 4.9096  28046.1  167.155
 5.1076  27807.2  167.043
 5.3056  28572.4  169.046
 5.5036  28442.3  168.531
 5.7016  29019  170.213
 5.8996  29695.6  171.369
 6.0976  30328.6  174.688
 6.2956  31056.2  176.063
 6.4936  31945  177.735
 6.6916  32251.4  179.619
 6.8896  33136.4  181.927
 7.0876  34641.8  186.769
 7.2856  34450.2  185.267
 7.4836  34970.1  185.957
 7.6816  35919.9  189.032
 7.8796  37821.6  193.939
 8.0776  39337.7  198.831
 8.2756  41242.5  202.127
 8.4736  42111.9  204.039
 8.6716  41724.6  203.758
 8.8696  41627.5  204.058
 9.0676  40883.4  201.558
 9.2656  40275.7  200.79
 9.4636  39785.8  197.854
 9.6616  38691.2  195.944
 9.8596  37774.6  193.026
 10.0576  35871.2  188.805
 10.2556  34542.7  185.735
 10.4536  32913.1  180.895
 10.6516  32345  179.517
 10.8496  31148.9  175.556
 11.0476  30670.9  174.228
 11.2456  29928.2  172.673
 11.4436  29828.8  171.507
 11.6416  29605.1  171.254
 11.8396  27722  165.933
 12.0376  27776.7  165.702
 12.2356  27327.7  164.786
 12.4336  27113.1  163.656
 12.6316  26839.3  163.116
 12.8296  27299.2  164.126
 13.0276  28065.8  166.595
 13.2256  27824.5  166.273
 13.4236  27767.5  165.852
 13.6216  27276.6  164.405
 13.8196  27506.2  164.839
 14.0176  27123.3  163.995
 14.2156  26707.1  161.719
 14.4136  25266.9  158.747
 14.6116  24923.8  156.831
 14.8096  24147.6  154.356
 15.0076  22841.5  154.135
 15.2056  22450.2  148.395
 15.4036  21678.2  146.715
 15.6016  21278.9  144.373
 15.7996  20455  141.846
 15.9976  19649.8  142.174
 16.1956  18973.8  137.452
 16.3936  18460.3  134.713
 16.5916  18141.9  134.209
 16.7896  18217.8  134.555
 16.9876  18179.1  135.948
 17.1856  18118.5  133.975
 17.3836  17517  131.626
 17.5816  16932.2  129.924
 17.7796  16663.6  128.824
 17.9776  16549.3  129.22
 18.1756  16714  128.493
 18.3736  16623.8  128.676
 18.5716  16265.7  127.026
 18.7696  16405.7  127.121
 18.9676  15894.1  124.921
 19.1656  15825.7  125.239
 19.3636  15827.8  125.448
 19.5616  15684.8  125.065
 19.7596  15764.1  124.757
 19.9576  16255.6  126.737
 20.1556  16188.2  127.039
 20.3536  15408.3  123.282
 20.5516  15286.3  123.273
 20.7496  14817.4  121.307
 20.9476  14678.6  120.474
 21.1456  14923  121.813
 21.3436  14691  120.815
 21.5416  14405  119.628
 21.7396  14426.3  119.548
 21.9376  14350.6  118.991
 22.1356  14578.1  120.058
 22.3336  14416.5  119.705
 22.5316  14195.2  118.877
 22.7296  14336.8  118.794
 22.9276  14397.1  119.762
 23.1256  14478  119.544
 23.3236  14106.3  118.601
 23.5216  13817  117.02
 23.7196  13591.9  116.004
 23.9176  13702.3  116.225
 24.1156  13500.3  115.856
 24.3136  13158.8  115.199
 24.5116  13309.3  115.364
 24.7096  12945.7  113.584
 24.9076  12650.7  112.308
 25.1056  12492.4  112.091
 25.3036  12408.2  111.189
 25.5016  12267.1  110.591
 25.6996  12388.9  110.701
 25.8976  12134.2  110.016
 26.0956  12272.6  110.664
 26.2936  12267.3  110.261
 26.4916  12177.4  109.734
 26.6896  11846.2  108.54
 26.8876  11769.1  108.038
 27.0856  11679.9  107.679
 27.2836  11439.9  106.455
 27.4816  11362.8  106.025
 27.6796  11544.9  107.271
 27.8776  11253.2  105.753
 28.0756  11379  106.643
 28.2736  11249.4  105.596
 28.4716  11040.7  104.666
 28.6696  11146  105.005
 28.8676  11108.2  105.192
 29.0656  10830.8  103.85
 29.2636  10948.7  104.194
 29.4616  10884.5  104.07
 29.6596  10831.3  103.358
 29.8576  10679.1  103.354
 30.0556  10567.6  102.688
 30.2536  10685.2  103.029
 30.4516  10399.6  101.306
 30.6496  10486.2  101.441
 30.8476  10371.3  101.347
 31.0456  10430.4  101.592
 31.2436  10314.8  100.263
 31.4416  10320.1  100.461
 31.6396  10296.3  100.397
 31.8376  10382.8  100.345
 32.0356  10127.3  99.6938
 32.2336  10044.8  98.6467
 32.4316  9927.7  98.487
 32.6296  9959.23  98.4731
 32.8276  9917.5  98.0258
 33.0256  9793.45  97.4951
 33.2236  9722.35  97.2928
 33.4216  9810.97  97.3971
 33.6196  9762.07  97.4657
 33.8176  9703.29  97.3601
 34.0156  9660.5  96.7452
 34.2136  9616.38  96.5607
 34.4116  9473.68  95.9946
 34.6096  9387.04  95.4315
 34.8076  9359.43  95.7138
 35.0056  9431.78  95.7593
 35.2036  9466.94  96.1622
 35.4016  9280.33  95.1256
 35.5996  9087.75  94.1715
 35.7976  9041.35  94.223
 35.9956  9207.14  94.7098
 36.1936  8993.82  93.4673
 36.3916  8972.02  93.5393
 36.5896  8890.27  94.1168
 36.7876  8826.19  93.1341
 36.9856  8682.45  92.4071
 37.1836  8700.39  91.5878
 37.3816  8809.71  92.5427
 37.5796  8671.59  93.5969
 37.7776  8549.54  91.2805
 37.9756  8720.97  92.0715
 38.1736  8726.29  92.2957
 38.3716  8481.72  91.2742
 38.5696  8713.23  92.8865
 38.7676  8516.1  91.3311
 38.9656  8412.05  90.3942
 39.1636  8426.99  90.759
 39.3616  8600.6  91.604
 39.5596  8353.38  91.1486
 39.7576  8257.5  89.994
 39.9556  8271.24  89.6991
 40.1536  8497.91  91.1253
 40.3516  8446.35  90.8571
 40.5496  8445.81  91.1233
 40.7476  8415.5  90.9667
 40.9456  8455.18  90.9221
 41.1436  8323.68  89.9334
 41.3416  8251.99  89.8776
 41.5396  8313.68  90.0192
 41.7376  8310.56  90.2732
 41.9356  8178.82  89.4077
 42.1336  8303.78  90.2472
 42.3316  8133.11  89.5112
 42.5296  8212.93  89.4529
 42.7276  8179.58  89.5202
 42.9256  8105.32  88.9812
 43.1236  8165.87  89.4218
 43.3216  8087.49  88.7388
 43.5196  8033.18  88.5021
 43.7176  8023.3  88.853
 43.9156  8053.94  88.9217
 44.1136  7927  87.7624
 44.3116  8196.75  89.2512
 44.5096  8110.42  89.1037
 44.7076  8091.85  88.9302
 44.9056  7869.88  87.5784
 45.1036  7858.63  87.1324
 45.3016  7811.72  87.3866
 45.4996  7659.9  86.466
 45.6976  7746.92  87.128
 45.8956  7778.66  87.1253
 46.0936  7671.61  86.5304
 46.2916  7650.34  86.3894
 46.4896  7707.85  86.7543
 46.6876  7625.46  87.0131
 46.8856  7761.61  87.0243
 47.0836  7641.62  86.6043
 47.2816  7580.27  86.1081
 47.4796  7706.73  86.9555
 47.6776  7692.55  87.8462
 47.8756  7663.23  86.8177
 48.0736  7608.07  86.9848
 48.2716  7614.19  86.821
 48.4696  7666.21  86.7137
 48.6676  7601.16  86.9332
 48.8656  7649.97  86.9523
 49.0636  7511.77  86.1025
 49.2616  7519.27  86.1669
 49.4596  7669.92  86.5783
 49.6576  7562.47  86.2125
 49.8556  7581.99  86.319
 50.0536  7526.5  86.4791
 50.2516  7576.03  86.903
 50.4496  7577.13  86.5413
 50.6476  7560.01  86.1189
 50.8456  7491.04  85.8261
 51.0436  7561.11  86.6759
 51.2416  7546.72  86.2548
 51.4396  7412.9  85.9004
 51.6376  7533.67  86.4115
 51.8356  7570.86  86.2204
 52.0336  7144.96  84.3089
 52.2316  7325.56  85.7243
 52.4296  7222.68  84.8037
 52.6276  7193.58  84.7549
 52.8256  7234.56  84.5349
 53.0236  7290.96  85.5348
 53.2216  7140.16  84.6771
 53.4196  7023.84  83.9171
 53.6176  7170.1  85.2792
 53.8156  7208.56  85.1644
 54.0136  7143.44  84.9705
 54.2116  7077.79  84.2248
 54.4096  7154.71  84.7286
 54.6076  7124.92  84.9246
 54.8056  6934.1  83.5566
 55.0036  7102.69  84.987
 55.2016  6984.4  83.7864
 55.3996  7095.16  84.4214
 55.5976  7034.28  84.2562
 55.7956  7073.6  84.2973
 55.9936  6958.24  83.7493
 56.1916  7070.02  84.4373
 56.3896  7044.82  84.28
 56.5876  6951.71  84.3015
 56.7856  6989.06  83.982
 56.9836  6959.37  83.5753
 57.1816  7012.97  84.3016
 57.3796  7048.24  84.2914
 57.5776  7110.71  84.6018
 57.7756  7000.33  84.6112
 57.9736  6949.94  83.9654
 58.1716  7052.35  84.8325
 58.3696  6973.15  84.0858
 58.5676  7030.54  83.8585
 58.7656  6965.64  84.1991
 58.9636  7042.95  84.6972
 59.1616  7064.81  84.9746
 59.3596  7072.45  84.2251
 59.5576  6975.19  83.7048
 59.7556  6969.81  84.1218
 59.9536  7180.36  85.2727
 60.1516  7015.41  85.2023
 60.1996  0.0000000E+00  0.0000000E+00