File: docs/examples/XRD/IS17_D/Data/IS17_D/17_Da_f00092.xye
# /beamlines/bl04/projects/cycle2025-II/20250340211-lsimonelli/DATA/IS17_D/17_Da_f00092.xye : mythproc.py merge -s 0.006 -l 0.5 -f /beamlines/bl04/inhouse/ff/FlatField/ff_20Nov2024rod8mm60s_17keV.raw -b True -c true -o xye /beamlines/bl04/projects/cycle2025-II/20250340211-lsimonelli/DATA/IS17_D/17_Da_00092.dat
# IsMon = [6753517, 6749294, 6754928]  IsPos = [-1.4999, -2.4884, -3.4988]
# Wave = 0.4962  CalPath /beamlines/bl04/projects/cycle2025-II/20250340211-lsimonelli/DATA/Align/Si_Pos1_25keV_f00001.cal
# Date = 2025-09-24_19:12:42 Dt = 4.8000  Bin = 0.0060  <imon> = 6752580 +/- 2394 (Min/Max) 6749294 / 6754928
# icurr 249.5795  mocoIn 1.7017E-05  mocoOut 0.7987  i15 7.07549e+06  imon 6.75258e+06  i7 6.3333  iEMpd_timer 4.8000  iEMpd_1 3.4630E-08  iEMpd_2 7.7997E-08  iEMpd_3 1.6167E-08  iEMpd_4 4.7848E-08  iEMhp_timer 4.8000  iEMhp_1 4.8737E-06  iEMhp_2 -2.5991E-08  iEMhp_3 -2.5721E-08  iEMhp_4 -2.0964E-08
#      9776
 1.7416  69483.5  263.655
 1.9396  45597.3  213.854
 2.1376  32176.5  179.644
 2.3356  28772.5  169.52
 2.5336  26612  163.605
 2.7316  25125.8  159.108
 2.9296  24340.8  156.766
 3.1276  23709  154.259
 3.3256  23279.9  152.548
 3.5236  25485.1  159.415
 3.7216  22987  152.603
 3.9196  22724.2  150.966
 4.1176  22471  149.892
 4.3156  23792.8  154.396
 4.5136  26218.4  161.076
 4.7116  27097.2  164.874
 4.9096  26654.1  162.958
 5.1076  26252.4  162.296
 5.3056  26898.1  164.008
 5.5036  26730.5  163.4
 5.7016  27073.7  164.411
 5.8996  27622.8  165.284
 6.0976  28190.6  168.408
 6.2956  29011.6  170.181
 6.4936  29451.1  170.647
 6.6916  29659.9  172.255
 6.8896  30379.4  174.195
 7.0876  31450.6  177.962
 7.2856  31149.2  176.17
 7.4836  31471.1  176.418
 7.6816  32295.2  179.243
 7.8796  33721.1  183.156
 8.0776  35288.8  188.346
 8.2756  37219.6  192.023
 8.4736  37633.7  192.91
 8.6716  36964.8  191.83
 8.8696  37061.1  192.512
 9.0676  35951.4  188.967
 9.2656  34967.3  187.051
 9.4636  34574.1  184.41
 9.6616  33911.8  183.408
 9.8596  32606.8  179.353
 10.0576  30792.3  174.963
 10.2556  29928.6  172.909
 10.4536  29202.8  170.41
 10.6516  28278  167.88
 10.8496  27666.8  165.452
 11.0476  26910.3  163.206
 11.2456  26190.9  161.554
 11.4436  26321.6  161.108
 11.6416  25998.2  160.48
 11.8396  24401.5  155.673
 12.0376  24479  155.557
 12.2356  23892.9  154.1
 12.4336  23940.3  153.789
 12.6316  23478.3  152.559
 12.8296  23817.7  153.302
 13.0276  24423.1  155.42
 13.2256  24417.8  155.766
 13.4236  24146.1  154.664
 13.6216  24164.1  154.738
 13.8196  24064.5  154.19
 14.0176  23802.1  153.63
 14.2156  23408.4  151.405
 14.4136  22183.9  148.754
 14.6116  21803.1  146.686
 14.8096  21232.6  144.735
 15.0076  20015.5  144.311
 15.2056  19775.6  139.296
 15.4036  18814.1  136.688
 15.6016  18626  135.089
 15.7996  18021  133.147
 15.9976  17275.3  133.294
 16.1956  16658.5  128.769
 16.3936  16594.2  127.697
 16.5916  16207.4  126.828
 16.7896  16156.5  126.685
 16.9876  16154.7  128.159
 17.1856  15734.5  124.877
 17.3836  15382.2  123.369
 17.5816  14952.1  122.112
 17.7796  14744.1  121.188
 17.9776  14713.3  121.833
 18.1756  14864.1  121.173
 18.3736  14808.7  121.465
 18.5716  14634.9  120.49
 18.7696  14356.8  118.911
 18.9676  14220.7  118.154
 19.1656  13928  117.488
 19.3636  13882  117.505
 19.5616  13823  117.418
 19.7596  13985.6  117.501
 19.9576  14240.4  118.627
 20.1556  14281.7  119.329
 20.3536  13553.5  115.628
 20.5516  13366.3  115.269
 20.7496  13204.1  114.508
 20.9476  12993.1  113.332
 21.1456  13107.8  114.176
 21.3436  12821.4  112.868
 21.5416  12775.8  112.674
 21.7396  12592.9  111.702
 21.9376  12711  111.99
 22.1356  12718.8  112.16
 22.3336  12682.6  112.3
 22.5316  12679.4  112.355
 22.7296  12646  111.584
 22.9276  12564  111.894
 23.1256  12682.4  111.888
 23.3236  12489.7  111.57
 23.5216  12523.4  111.387
 23.7196  12285.1  110.265
 23.9176  12223.6  109.75
 24.1156  12246.6  110.324
 24.3136  11744.6  108.846
 24.5116  11644  107.912
 24.7096  11593.6  107.496
 24.9076  11233.8  105.836
 25.1056  11002.6  105.204
 25.3036  11053.7  104.957
 25.5016  11011.5  104.784
 25.6996  11052.4  104.559
 25.8976  10877.3  104.157
 26.0956  10957.3  104.56
 26.2936  10831  103.614
 26.4916  10928.6  103.957
 26.6896  10458.3  101.984
 26.8876  10591.8  102.479
 27.0856  10527.8  102.221
 27.2836  10268.8  100.856
 27.4816  10313  101.013
 27.6796  10105.7  100.362
 27.8776  10136.2  100.371
 28.0756  10230.6  101.125
 28.2736  10098.5  100.05
 28.4716  9870.74  98.9643
 28.6696  9942.76  99.1753
 28.8676  9752.37  98.5647
 29.0656  9595.33  97.7477
 29.2636  9680.94  97.9739
 29.4616  9537.33  97.4337
 29.6596  9634.94  97.4971
 29.8576  9486.54  97.4241
 30.0556  9424.35  96.9812
 30.2536  9628.11  97.8205
 30.4516  9356.23  96.0712
 30.6496  9486.3  96.4634
 30.8476  9320.96  96.0585
 31.0456  9252.89  95.6668
 31.2436  9272.42  95.0388
 31.4416  9203.24  94.8822
 31.6396  9290.23  95.3761
 31.8376  9089.01  93.8885
 32.0356  9202.8  95.0371
 32.2336  8983.6  93.2886
 32.4316  8958.61  93.5659
 32.6296  8936.15  93.2876
 32.8276  8995.84  93.3691
 33.0256  8802.59  92.4376
 33.2236  8757.59  92.3387
 33.4216  8886.73  92.7028
 33.6196  8843.05  92.7813
 33.8176  8745.41  92.4243
 34.0156  8811.36  92.3896
 34.2136  8702.53  91.8512
 34.4116  8633.62  91.6447
 34.6096  8460.29  90.5989
 34.8076  8440.86  90.8954
 35.0056  8336.23  90.0296
 35.2036  8383.53  90.4752
 35.4016  8459.69  90.8258
 35.5996  8403.02  90.5544
 35.7976  8286.74  90.1913
 35.9956  8423.85  90.5857
 36.1936  8295.68  89.7608
 36.3916  8254.72  89.7188
 36.5896  8184.67  90.2995
 36.7876  8332.16  90.5183
 36.9856  7976.83  88.5917
 37.1836  8187.51  88.8622
 37.3816  8162.31  89.0826
 37.5796  8102.75  90.4788
 37.7776  7953.78  88.022
 37.9756  8007.74  88.2041
 38.1736  8116.64  88.9951
 38.3716  7918.83  88.1771
 38.5696  7957.54  88.7795
 38.7676  7710.61  86.91
 38.9656  7758.03  86.8165
 39.1636  7792.25  87.2647
 39.3616  7832.52  87.4336
 39.5596  7669.48  87.3334
 39.7576  7773.08  87.3059
 39.9556  7776.91  86.9671
 40.1536  7876.76  87.7252
 40.3516  7794.66  87.2825
 40.5496  7926.92  88.2908
 40.7476  7944.68  88.3823
 40.9456  7993.85  88.407
 41.1436  7871.44  87.4466
 41.3416  7948.77  88.215
 41.5396  7840.58  87.4193
 41.7376  7824.16  87.5869
 41.9356  7800.52  87.3151
 42.1336  7880.52  87.9105
 42.3316  7744.01  87.3463
 42.5296  7745.32  86.8731
 42.7276  7764.56  87.22
 42.9256  7737.89  86.9396
 43.1236  7632.43  86.4513
 43.3216  7682.8  86.4861
 43.5196  7552.02  85.8137
 43.7176  7604.21  86.4997
 43.9156  7543.23  86.0661
 44.1136  7499.11  85.3728
 44.3116  7511.89  85.4511
 44.5096  7350.39  84.8391
 44.7076  7424.31  85.1959
 44.9056  7427.69  85.0701
 45.1036  7345.93  84.2317
 45.3016  7323.23  84.5918
 45.4996  7232.49  84.0086
 45.6976  7002.94  82.8364
 45.8956  7311.94  84.4759
 46.0936  7282.18  84.3049
 46.2916  7249.84  84.1036
 46.4896  7286.34  84.335
 46.6876  7259.22  84.8969
 46.8856  7102.6  83.2446
 47.0836  7071.81  83.3047
 47.2816  7019.95  82.8826
 47.4796  7143.08  83.7064
 47.6776  6874.33  83.039
 47.8756  6870.21  82.2132
 48.0736  6957.57  83.1792
 48.2716  6789.12  81.994
 48.4696  6979.53  82.7276
 48.6676  6913.44  82.9128
 48.8656  7019.7  83.2682
 49.0636  6961.69  82.8785
 49.2616  6686.38  81.2579
 49.4596  6768.55  81.3327
 49.6576  6725.06  81.2899
 49.8556  6710.09  81.2182
 50.0536  6721.43  81.727
 50.2516  6732.9  81.9226
 50.4496  6606.97  80.8238
 50.6476  6622.14  80.601
 50.8456  6642.9  80.8174
 51.0436  6522.37  80.5152
 51.2416  6567.66  80.4644
 51.4396  6446.45  80.1195
 51.6376  6405.13  79.6886
 51.8356  6537.04  80.1445
 52.0336  6356.37  79.5073
 52.2316  6369.09  79.9302
 52.4296  6430.45  80.0118
 52.6276  6360.15  79.6846
 52.8256  6376.12  79.3499
 53.0236  6269.49  79.3299
 53.2216  6169.72  78.7292
 53.4196  6221.26  78.9821
 53.6176  6122.02  78.817
 53.8156  6129.86  78.5439
 54.0136  6319.15  79.9142
 54.2116  6190.52  78.7644
 54.4096  6220.71  79.0148
 54.6076  6163.09  78.988
 54.8056  6102.46  78.3887
 55.0036  6078.12  78.6115
 55.2016  6049.87  77.9868
 55.3996  6150.62  78.6035
 55.5976  6038.46  78.0715
 55.7956  6114.89  78.3823
 55.9936  6120.62  78.5476
 56.1916  6098.53  78.4255
 56.3896  6070.03  78.2377
 56.5876  6066.27  78.7511
 56.7856  6091.62  78.3932
 56.9836  5990.41  77.5399
 57.1816  6085.64  78.5279
 57.3796  6086.45  78.34
 57.5776  6087.49  78.2715
 57.7756  5897.39  77.6648
 57.9736  6040.32  78.2724
 58.1716  5955.99  77.9637
 58.3696  5968.4  77.7994
 58.5676  5970.17  77.2983
 58.7656  6016.37  78.2643
 58.9636  6151.65  79.1729
 59.1616  6111.81  79.0432
 59.3596  6295.93  79.4571
 59.5576  6075.96  78.1137
 59.7556  5912.78  77.4714
 59.9536  6034.68  78.1649
 60.1516  5928.01  78.3118
 60.1996  0.0000000E+00  0.0000000E+00