File: docs/examples/XRD/IS17_D/Data/IS17_D/17_Da_f00095.xye
# /beamlines/bl04/projects/cycle2025-II/20250340211-lsimonelli/DATA/IS17_D/17_Da_f00095.xye : mythproc.py merge -s 0.006 -l 0.5 -f /beamlines/bl04/inhouse/ff/FlatField/ff_20Nov2024rod8mm60s_17keV.raw -b True -c true -o xye /beamlines/bl04/projects/cycle2025-II/20250340211-lsimonelli/DATA/IS17_D/17_Da_00095.dat
# IsMon = [6782135, 6783755, 6779182]  IsPos = [-1.4999, -2.4884, -3.4988]
# Wave = 0.4962  CalPath /beamlines/bl04/projects/cycle2025-II/20250340211-lsimonelli/DATA/Align/Si_Pos1_25keV_f00001.cal
# Date = 2025-09-24_20:02:33 Dt = 4.8000  Bin = 0.0060  <imon> = 6781691 +/- 1893 (Min/Max) 6779182 / 6783755
# icurr 251.9781  mocoIn 1.7189E-05  mocoOut 0.8069  i15 7.1006e+06  imon 6.78169e+06  i7 4.0000  iEMpd_timer 4.8000  iEMpd_1 3.4872E-08  iEMpd_2 7.9177E-08  iEMpd_3 1.6903E-08  iEMpd_4 4.7369E-08  iEMhp_timer 4.8000  iEMhp_1 4.9234E-06  iEMhp_2 -2.5392E-08  iEMhp_3 -2.3669E-08  iEMhp_4 -2.0984E-08
#      9776
 1.7416  70422  265.439
 1.9396  46002.7  214.818
 2.1376  32674.7  181.037
 2.3356  29446.3  171.5
 2.5336  27694.4  166.905
 2.7316  25789.5  161.16
 2.9296  24798.5  158.205
 3.1276  24102.2  155.517
 3.3256  23738.1  154.002
 3.5236  25661.8  159.927
 3.7216  23401.5  153.975
 3.9196  23023.6  151.956
 4.1176  22855.6  151.168
 4.3156  24159.8  155.596
 4.5136  26462.5  161.809
 4.7116  27544.4  166.228
 4.9096  26866.9  163.61
 5.1076  26814.7  164.026
 5.3056  27141.9  164.764
 5.5036  26820.9  163.668
 5.7016  27265.3  164.992
 5.8996  27820.6  165.866
 6.0976  28517.3  169.38
 6.2956  29108.6  170.462
 6.4936  29568.2  170.992
 6.6916  29955.2  173.111
 6.8896  30999.7  175.96
 7.0876  31862.6  179.123
 7.2856  31589.2  177.407
 7.4836  31893.8  177.595
 7.6816  32403.6  179.544
 7.8796  33977  183.852
 8.0776  35402.7  188.646
 8.2756  37428  192.582
 8.4736  37881.4  193.541
 8.6716  37177.5  192.355
 8.8696  37063.3  192.556
 9.0676  36204.1  189.674
 9.2656  35260.2  187.869
 9.4636  35026  185.645
 9.6616  34080.2  183.909
 9.8596  32725.2  179.647
 10.0576  31165  175.977
 10.2556  30073.5  173.297
 10.4536  29167.2  170.274
 10.6516  28470.2  168.424
 10.8496  27761.3  165.746
 11.0476  26873.9  163.096
 11.2456  26322.1  161.94
 11.4436  26420.9  161.412
 11.6416  26527.9  162.111
 11.8396  24581.4  156.247
 12.0376  24610.5  155.99
 12.2356  24164.7  154.957
 12.4336  24204.3  154.628
 12.6316  23676.9  153.207
 12.8296  24031.1  153.989
 13.0276  24604.7  155.995
 13.2256  24495.2  156.013
 13.4236  24450.1  155.64
 13.6216  24383.9  155.439
 13.8196  24425.3  155.345
 14.0176  24005.9  154.292
 14.2156  23550.3  151.86
 14.4136  22501.8  149.811
 14.6116  22088.8  147.644
 14.8096  21556.1  145.847
 15.0076  20205.7  144.991
 15.2056  19958.5  139.933
 15.4036  19014.1  137.417
 15.6016  18728.8  135.462
 15.7996  18400.2  134.555
 15.9976  17594.7  134.531
 16.1956  16953.9  129.931
 16.3936  16702.3  128.136
 16.5916  16276.5  127.126
 16.7896  16438.2  127.812
 16.9876  16326.1  128.829
 17.1856  16041.7  126.059
 17.3836  15555.8  124.036
 17.5816  15094.3  122.662
 17.7796  14985.5  122.159
 17.9776  14751.4  122.005
 18.1756  14916.9  121.388
 18.3736  14781.7  121.343
 18.5716  14383.5  119.454
 18.7696  14443.5  119.274
 18.9676  14107.7  117.683
 19.1656  14036.9  117.952
 19.3636  14060.1  118.237
 19.5616  13925.8  117.849
 19.7596  14010.6  117.608
 19.9576  14343  119.054
 20.1556  14586.9  120.598
 20.3536  13814.1  116.73
 20.5516  13454.9  115.652
 20.7496  13085  113.991
 20.9476  13054.6  113.606
 21.1456  13134.3  114.285
 21.3436  13071.5  113.967
 21.5416  13009.9  113.693
 21.7396  12769.2  112.479
 21.9376  12852.8  112.629
 22.1356  12760.8  112.336
 22.3336  12729.5  112.494
 22.5316  12721.3  112.554
 22.7296  12777.8  112.151
 22.9276  12645  112.252
 23.1256  12790.1  112.378
 23.3236  12605  112.11
 23.5216  12583.3  111.675
 23.7196  12715.7  112.209
 23.9176  12419.9  110.64
 24.1156  12234.9  110.291
 24.3136  11710.8  108.671
 24.5116  11938.4  109.248
 24.7096  11689  107.918
 24.9076  11321.8  106.237
 25.1056  11030.8  105.321
 25.3036  11119.4  105.257
 25.5016  11055.2  104.987
 25.6996  11059  104.593
 25.8976  10938.5  104.453
 26.0956  11030.6  104.921
 26.2936  11034.7  104.561
 26.4916  10904.9  103.843
 26.6896  10706.7  103.191
 26.8876  10518.9  102.132
 27.0856  10615.9  102.655
 27.2836  10325.8  101.136
 27.4816  10309.7  100.995
 27.6796  10264.1  101.146
 27.8776  10147.1  100.421
 28.0756  10190.4  100.928
 28.2736  10163.9  100.377
 28.4716  10019.7  99.7099
 28.6696  9828.34  98.598
 28.8676  9734.49  98.4733
 29.0656  9801.7  98.7905
 29.2636  9725.41  98.1972
 29.4616  9631.48  97.9113
 29.6596  9690.93  97.7785
 29.8576  9474.99  97.3658
 30.0556  9535.55  97.5594
 30.2536  9671.74  98.0404
 30.4516  9394.79  96.2881
 30.6496  9475.64  96.4265
 30.8476  9518.13  97.0843
 31.0456  9372.22  96.2941
 31.2436  9320.24  95.2999
 31.4416  9078.87  94.2214
 31.6396  9339.98  95.6142
 31.8376  9191.55  94.4017
 32.0356  9032.54  94.134
 32.2336  9005.88  93.3919
 32.4316  9034.93  93.9557
 32.6296  9080.48  94.0264
 32.8276  9101.38  93.905
 33.0256  8764.81  92.235
 33.2236  8973.72  93.4719
 33.4216  8928.16  92.9368
 33.6196  8802.49  92.5599
 33.8176  8874.43  93.1038
 34.0156  8812.86  92.3875
 34.2136  8685.25  91.7618
 34.4116  8639.74  91.6779
 34.6096  8653.47  91.6201
 34.8076  8524.29  91.3428
 35.0056  8479.73  90.8008
 35.2036  8498.66  91.0924
 35.4016  8491.44  90.9941
 35.5996  8367.2  90.3613
 35.7976  8374.51  90.674
 35.9956  8472.77  90.8469
 36.1936  8378.7  90.2097
 36.3916  8230.01  89.5767
 36.5896  8237.18  90.5817
 36.7876  8311.82  90.4071
 36.9856  8185.56  89.7467
 37.1836  8232.6  89.1044
 37.3816  8320.62  89.9505
 37.5796  8161.71  90.7954
 37.7776  7965.15  88.0991
 37.9756  8083.59  88.6315
 38.1736  8039.41  88.5863
 38.3716  8055.9  88.9496
 38.5696  8020.82  89.1291
 38.7676  7940.86  88.1791
 38.9656  7826.71  87.1844
 39.1636  7845.49  87.5497
 39.3616  7939.58  88.0009
 39.5596  7793.34  88.0401
 39.7576  7778.62  87.3379
 39.9556  7871.45  87.4978
 40.1536  8005.38  88.4483
 40.3516  7879.52  87.753
 40.5496  8034.41  88.8683
 40.7476  7928.91  88.2994
 40.9456  7990.34  88.3889
 41.1436  8000.77  88.1609
 41.3416  7891.42  87.893
 41.5396  7829.5  87.3596
 41.7376  7867.04  87.831
 41.9356  7897.6  87.859
 42.1336  7870.31  87.854
 42.3316  7790.39  87.6076
 42.5296  7932.17  87.9146
 42.7276  7831.67  87.5922
 42.9256  7819.08  87.3918
 43.1236  7733.44  87.0229
 43.3216  7813.56  87.2235
 43.5196  7577.86  85.957
 43.7176  7600  86.4722
 43.9156  7456.24  85.5705
 44.1136  7626.73  86.0941
 44.3116  7594.66  85.9333
 44.5096  7489.45  85.6363
 44.7076  7531.82  85.8089
 44.9056  7390.57  84.8741
 45.1036  7298.06  83.9734
 45.3016  7376.82  84.9217
 45.4996  7325.96  84.5666
 45.6976  7297.06  84.5779
 45.8956  7394.21  84.9382
 46.0936  7301.93  84.4057
 46.2916  7387.12  84.8803
 46.4896  7327.98  84.5713
 46.6876  7256.21  84.8596
 46.8856  7157.99  83.5636
 47.0836  7201.07  84.0627
 47.2816  7132  83.5327
 47.4796  7111.52  83.516
 47.6776  7043.89  84.0622
 47.8756  7080.23  83.4488
 48.0736  7042.42  83.6923
 48.2716  6924.2  82.8034
 48.4696  6902.52  82.2737
 48.6676  7000.5  83.4389
 48.8656  6959.14  82.9257
 49.0636  6960.98  82.8736
 49.2616  6777.35  81.8077
 49.4596  6874.49  81.9545
 49.6576  6873.55  82.1819
 49.8556  6795.61  81.7353
 50.0536  6861.5  82.5704
 50.2516  6773.58  82.1731
 50.4496  6698.5  81.3763
 50.6476  6721.54  81.2026
 50.8456  6725.15  81.3059
 51.0436  6601.01  80.9964
 51.2416  6624.87  80.8234
 51.4396  6530.34  80.6266
 51.6376  6481.59  80.151
 51.8356  6546.37  80.1871
 52.0336  6565.83  80.8195
 52.2316  6364.77  79.9177
 52.4296  6522.95  80.6062
 52.6276  6461.31  80.3384
 52.8256  6387.25  79.4284
 53.0236  6349  79.8171
 53.2216  6351.37  79.8658
 53.4196  6154  78.5409
 53.6176  6249.63  79.6201
 53.8156  6385.42  80.1412
 54.0136  6314.29  79.8944
 54.2116  6220.84  78.9558
 54.4096  6214.45  78.9648
 54.6076  6217.03  79.3327
 54.8056  6074.85  78.2108
 55.0036  6160.67  79.1489
 55.2016  6160.68  78.6963
 55.3996  6213.38  79.0008
 55.5976  6139.97  78.7212
 55.7956  6097.97  78.272
 55.9936  6138.4  78.6646
 56.1916  6147.58  78.7321
 56.3896  6110.52  78.4954
 56.5876  6082.75  78.8621
 56.7856  6054.41  78.1668
 56.9836  6016.21  77.7043
 57.1816  6094.52  78.5863
 57.3796  6126.22  78.5888
 57.5776  6137.54  78.5908
 57.7756  5998.51  78.3253
 57.9736  6011.86  78.0933
 58.1716  6033.17  78.4691
 58.3696  6002.07  78.019
 58.5676  6136.41  78.3622
 58.7656  6020.74  78.2872
 58.9636  6123.85  78.9928
 59.1616  6217.11  79.7195
 59.3596  6225.26  79.0387
 59.5576  6139.07  78.5466
 59.7556  6108.15  78.7692
 59.9536  6314.59  79.9858
 60.1516  6228.05  80.298
 60.1996  0.0000000E+00  0.0000000E+00