File: docs/examples/XRD/IS17_D/Data/IS17_D/17_Da_f00150.xye
# /beamlines/bl04/projects/cycle2025-II/20250340211-lsimonelli/DATA/IS17_D/17_Da_f00150.xye : mythproc.py merge -s 0.006 -l 0.5 -f /beamlines/bl04/inhouse/ff/FlatField/ff_20Nov2024rod8mm60s_17keV.raw -b True -c true -o xye /beamlines/bl04/projects/cycle2025-II/20250340211-lsimonelli/DATA/IS17_D/17_Da_00150.dat
# IsMon = [6773032, 6782072, 6778115]  IsPos = [-1.4999, -2.4883, -3.4988]
# Wave = 0.4962  CalPath /beamlines/bl04/projects/cycle2025-II/20250340211-lsimonelli/DATA/Align/Si_Pos1_25keV_f00001.cal
# Date = 2025-09-25_11:21:41 Dt = 4.8000  Bin = 0.0060  <imon> = 6777740 +/- 3700 (Min/Max) 6773032 / 6782072
# icurr 252.1586  mocoIn 1.7200E-05  mocoOut 0.8066  i15 7.09674e+06  imon 6.77774e+06  i7 6.6667  iEMpd_timer 4.8000  iEMpd_1 3.3907E-08  iEMpd_2 7.8145E-08  iEMpd_3 1.6346E-08  iEMpd_4 4.8341E-08  iEMhp_timer 4.8000  iEMhp_1 4.9260E-06  iEMhp_2 -2.4718E-08  iEMhp_3 -2.3374E-08  iEMhp_4 -2.0016E-08
#      9776
 1.7416  70616.6  265.906
 1.9396  46752.3  216.638
 2.1376  33086  182.242
 2.3356  29224.3  170.917
 2.5336  27107.7  165.19
 2.7316  25688.4  160.862
 2.9296  24743.5  158.044
 3.1276  24241.9  155.994
 3.3256  23895.8  154.55
 3.5236  25848.5  160.505
 3.7216  23797.1  155.272
 3.9196  23158.2  152.402
 4.1176  23015.6  151.709
 4.3156  24314.6  156.085
 4.5136  26802.6  162.838
 4.7116  27861.7  167.185
 4.9096  26905.3  163.725
 5.1076  26666.6  163.59
 5.3056  27208.3  164.958
 5.5036  27079  164.441
 5.7016  27596.1  165.989
 5.8996  28240.4  167.12
 6.0976  28845.8  170.37
 6.2956  29485.2  171.552
 6.4936  30003.6  172.245
 6.6916  30426.9  174.468
 6.8896  30945.5  175.808
 7.0876  31955.3  179.383
 7.2856  31900.9  178.284
 7.4836  32441.2  179.187
 7.6816  33227.7  181.81
 7.8796  34705.3  185.774
 8.0776  36039.8  190.296
 8.2756  37919.5  193.794
 8.4736  38530.4  195.152
 8.6716  38096.3  194.682
 8.8696  37740.4  194.313
 9.0676  37082.4  191.978
 9.2656  36100.4  190.106
 9.4636  35700.3  187.429
 9.6616  35319.4  187.219
 9.8596  33689.7  182.293
 10.0576  31987.7  178.282
 10.2556  30864.8  175.587
 10.4536  29953.7  172.573
 10.6516  29178.8  170.519
 10.8496  28640.7  168.356
 11.0476  28118.2  166.828
 11.2456  27116.1  164.354
 11.4436  27491.2  164.65
 11.6416  26829.2  163.028
 11.8396  25331  158.624
 12.0376  25164.5  157.727
 12.2356  24547.4  156.175
 12.4336  24658.9  156.082
 12.6316  24184.2  154.85
 12.8296  24612.2  155.84
 13.0276  25117.1  157.601
 13.2256  24982.3  157.555
 13.4236  25041  157.505
 13.6216  24778.3  156.709
 13.8196  24804.5  156.544
 14.0176  24610.6  156.215
 14.2156  23828.5  152.758
 14.4136  22800  150.801
 14.6116  22467.2  148.904
 14.8096  22007.8  147.359
 15.0076  20646.6  146.573
 15.2056  20368  141.337
 15.4036  19315.5  138.478
 15.6016  18982.7  136.348
 15.7996  18669.5  135.504
 15.9976  17765.3  135.144
 16.1956  17308.1  131.291
 16.3936  16965.9  129.156
 16.5916  16743.3  128.942
 16.7896  16594.8  128.427
 16.9876  16629.8  130.024
 17.1856  16256.5  126.896
 17.3836  15808.7  125.052
 17.5816  15350.7  123.709
 17.7796  15226.8  123.15
 17.9776  15151.8  123.65
 18.1756  15355.1  123.162
 18.3736  15114.3  122.697
 18.5716  14787.3  121.112
 18.7696  14783.5  120.669
 18.9676  14584.9  119.669
 19.1656  14442.4  119.642
 19.3636  14478.9  119.979
 19.5616  14277.6  119.33
 19.7596  14379.9  119.157
 19.9576  14874.5  121.242
 20.1556  14492.5  120.197
 20.3536  13959  117.344
 20.5516  13653.3  116.5
 20.7496  13402.9  115.369
 20.9476  13212.6  114.308
 21.1456  13427.3  115.545
 21.3436  13104.5  114.111
 21.5416  13121.2  114.174
 21.7396  13010.7  113.543
 21.9376  13016.9  113.336
 22.1356  13019  113.458
 22.3336  13007.9  113.694
 22.5316  13045  113.949
 22.7296  12894.5  112.636
 22.9276  12968.7  113.659
 23.1256  12999.7  113.268
 23.3236  12895.6  113.403
 23.5216  12884.5  113.013
 23.7196  12624.4  111.809
 23.9176  12580.4  111.377
 24.1156  12302.8  110.608
 24.3136  12113.1  110.534
 24.5116  12013.4  109.602
 24.7096  11823.9  108.549
 24.9076  11547.4  107.309
 25.1056  11291.8  106.57
 25.3036  11312.7  106.165
 25.5016  11316  106.224
 25.6996  11364.7  106.031
 25.8976  11248.5  105.93
 26.0956  11343.9  106.393
 26.2936  11117  104.959
 26.4916  11340.4  105.895
 26.6896  10939.2  104.305
 26.8876  10717.5  103.102
 27.0856  10866.3  103.864
 27.2836  10652  102.773
 27.4816  10575.7  102.287
 27.6796  10578.4  102.683
 27.8776  10352  101.437
 28.0756  10451.2  102.203
 28.2736  10278.3  100.939
 28.4716  10078.5  100.003
 28.6696  10193.7  100.418
 28.8676  10008.4  99.8454
 29.0656  9973.55  99.672
 29.2636  9933.89  99.2473
 29.4616  9924.97  99.373
 29.6596  9845.3  98.5354
 29.8576  9724.75  98.6217
 30.0556  9801.14  98.8863
 30.2536  9936.03  99.3511
 30.4516  9728.76  97.9927
 30.6496  9664.29  97.3905
 30.8476  9666.16  97.8467
 31.0456  9517.47  97.0599
 31.2436  9477.01  96.1152
 31.4416  9299.6  95.37
 31.6396  9448.14  96.1745
 31.8376  9420.57  95.583
 32.0356  9335.69  95.7159
 32.2336  9298.38  94.916
 32.4316  9284.55  95.2019
 32.6296  9157.82  94.423
 32.8276  9148.47  94.1571
 33.0256  8972.63  93.3209
 33.2236  9135.16  94.318
 33.4216  9136.33  94.0048
 33.6196  9149.07  94.3609
 33.8176  9034.52  93.9386
 34.0156  8908.38  92.8913
 34.2136  8934.91  93.075
 34.4116  8763.61  92.4436
 34.6096  8818.12  92.4926
 34.8076  8698.65  92.2752
 35.0056  8752  92.2475
 35.2036  8619.81  91.7555
 35.4016  8656.38  91.8658
 35.5996  8605.09  91.6354
 35.7976  8588.23  91.8244
 35.9956  8579.09  91.411
 36.1936  8509.78  90.9156
 36.3916  8438.37  90.6756
 36.5896  8413.76  91.5499
 36.7876  8501.3  91.4162
 36.9856  8363.83  90.6941
 37.1836  8416.71  90.0784
 37.3816  8321.44  89.9357
 37.5796  8184.41  90.9341
 37.7776  8202.21  89.4141
 37.9756  8216.2  89.3679
 38.1736  8301.1  90.0274
 38.3716  8189.76  89.6972
 38.5696  8094.78  89.5398
 38.7676  8031.71  88.695
 38.9656  8025.15  88.2917
 39.1636  7977.02  88.296
 39.3616  8069.76  88.725
 39.5596  7962.59  88.9778
 39.7576  7870.8  87.8527
 39.9556  8116.47  88.8525
 40.1536  8178.97  89.4052
 40.3516  8127.47  89.1278
 40.5496  8154.92  89.5287
 40.7476  8201.02  89.7991
 40.9456  8092.75  88.951
 41.1436  8050.7  88.4486
 41.3416  8101.4  89.0198
 41.5396  7972.04  88.0778
 41.7376  8079.8  89.0117
 41.9356  7947.71  88.1405
 42.1336  8051.32  88.8676
 42.3316  7972.13  88.6185
 42.5296  7966.56  88.106
 42.7276  7997.34  88.5185
 42.9256  7904.17  87.8689
 43.1236  7905.45  87.9859
 43.3216  7991.78  88.2156
 43.5196  7666.36  86.4633
 43.7176  7796.4  87.586
 43.9156  7693.08  86.901
 44.1136  7640.46  86.1557
 44.3116  7755.46  86.8198
 44.5096  7591.55  86.1938
 44.7076  7586.05  86.1009
 44.9056  7641.31  86.309
 45.1036  7607.5  85.742
 45.3016  7500.42  85.637
 45.4996  7364.65  84.7973
 45.6976  7337.74  84.8124
 45.8956  7440.98  85.2166
 46.0936  7480.81  85.3872
 46.2916  7519.53  85.6479
 46.4896  7403.9  85.0154
 46.6876  7264.39  84.9193
 46.8856  7324.37  84.5279
 47.0836  7297.04  84.6317
 47.2816  7130.32  83.521
 47.4796  7233.27  84.2339
 47.6776  7179.27  84.8677
 47.8756  7134.81  83.7735
 48.0736  7206.78  84.6619
 48.2716  7005.24  83.3174
 48.4696  7098.5  83.4494
 48.6676  7021.37  83.5497
 48.8656  7077.23  83.622
 49.0636  7031.82  83.2956
 49.2616  6971.34  82.8693
 49.4596  6927.27  82.4174
 49.6576  6954.27  82.6574
 49.8556  6900.19  82.3619
 50.0536  6986.46  83.3236
 50.2516  6892.65  82.9001
 50.4496  6837.67  82.2135
 50.6476  6936.65  82.4937
 50.8456  6832.54  81.9545
 51.0436  6718.55  81.6998
 51.2416  6699.52  81.2575
 51.4396  6647  81.3351
 51.6376  6700.33  81.4822
 51.8356  6619.42  80.6233
 52.0336  6526.78  80.5893
 52.2316  6582.54  81.2844
 52.4296  6575.77  80.9329
 52.6276  6682.41  81.6924
 52.8256  6551.1  80.4567
 53.0236  6452.02  80.4705
 53.2216  6479.73  80.6768
 53.4196  6412.04  80.1771
 53.6176  6289.17  79.8802
 53.8156  6469.58  80.6776
 54.0136  6392.61  80.379
 54.2116  6335.81  79.6921
 54.4096  6360.01  79.8826
 54.6076  6302.77  79.8764
 54.8056  6280.95  79.5228
 55.0036  6284.26  79.9404
 55.2016  6313.64  79.6783
 55.3996  6290.32  79.4863
 55.5976  6313.02  79.8285
 55.7956  6239.92  79.1708
 55.9936  6307.29  79.744
 56.1916  6227.39  79.2542
 56.3896  6274.86  79.5388
 56.5876  6277.28  80.1112
 56.7856  6218.64  79.2171
 56.9836  6137.82  78.4914
 57.1816  6265.21  79.6841
 57.3796  6252.8  79.3914
 57.5776  6305.96  79.6547
 57.7756  6127.72  79.1642
 57.9736  6213.43  79.3903
 58.1716  6117.26  79.0129
 58.3696  6127.15  78.8119
 58.5676  6296  79.3603
 58.7656  6321.35  80.203
 58.9636  6284.24  80.0056
 59.1616  6121.94  79.0735
 59.3596  6318.76  79.6131
 59.5576  6204.15  78.945
 59.7556  6233.57  79.5569
 59.9536  6309.93  79.9393
 60.1516  6330.72  80.9399
 60.1996  0.0000000E+00  0.0000000E+00