File: docs/examples/XRD/IS17_D/Data/IS17_D/17_Db_f00128.xye
# /beamlines/bl04/projects/cycle2025-II/20250340211-lsimonelli/DATA/IS17_D/17_Db_f00128.xye : mythproc.py merge -s 0.006 -l 0.5 -f /beamlines/bl04/inhouse/ff/FlatField/ff_20Nov2024rod8mm60s_17keV.raw -b True -c true -o xye /beamlines/bl04/projects/cycle2025-II/20250340211-lsimonelli/DATA/IS17_D/17_Db_00128.dat
# IsMon = [6770490, 6773209, 6772577]  IsPos = [-1.4999, -2.4884, -3.4988]
# Wave = 0.4962  CalPath /beamlines/bl04/projects/cycle2025-II/20250340211-lsimonelli/DATA/Align/Si_Pos1_25keV_f00001.cal
# Date = 2025-09-25_05:23:11 Dt = 4.8000  Bin = 0.0060  <imon> = 6772092 +/- 1162 (Min/Max) 6770490 / 6773209
# icurr 251.7747  mocoIn 1.7178E-05  mocoOut 0.8060  i15 7.09484e+06  imon 6.77209e+06  i7 4.6667  iEMpd_timer 4.8000  iEMpd_1 3.5649E-08  iEMpd_2 7.7625E-08  iEMpd_3 1.8015E-08  iEMpd_4 4.8577E-08  iEMhp_timer 4.8000  iEMhp_1 4.9194E-06  iEMhp_2 -2.5467E-08  iEMhp_3 -2.3850E-08  iEMhp_4 -2.0709E-08
#      9776
 1.7416  70653.2  265.914
 1.9396  49182.9  222.145
 2.1376  36060.8  190.215
 2.3356  32026.6  178.883
 2.5336  29815.7  173.206
 2.7316  27139.5  165.351
 2.9296  26104  162.316
 3.1276  25563.2  160.166
 3.3256  24884.8  157.689
 3.5236  26436.4  162.328
 3.7216  24241  156.707
 3.9196  23722.5  154.218
 4.1176  23738.9  154.064
 4.3156  24866.5  157.849
 4.5136  27008.1  163.469
 4.7116  27825.7  167.072
 4.9096  27183.8  164.563
 5.1076  27067.4  164.797
 5.3056  27182.6  164.867
 5.5036  27125.1  164.596
 5.7016  27431.2  165.489
 5.8996  28181.9  166.958
 6.0976  29032.7  170.89
 6.2956  29034.2  170.239
 6.4936  29811.3  171.682
 6.6916  30062.6  173.403
 6.8896  30808.5  175.377
 7.0876  31908.1  179.245
 7.2856  31788.6  177.949
 7.4836  32230.8  178.531
 7.6816  33112.4  181.463
 7.8796  33812.8  183.38
 8.0776  35277.2  188.298
 8.2756  37221.1  192.025
 8.4736  37744.8  193.179
 8.6716  37216.6  192.443
 8.8696  37974  194.924
 9.0676  37204  192.245
 9.2656  36348.6  190.74
 9.4636  35382.7  186.625
 9.6616  34567.1  185.197
 9.8596  33961.9  183.005
 10.0576  31675.5  177.409
 10.2556  30988.8  175.939
 10.4536  30322.2  173.629
 10.6516  29685  172.003
 10.8496  28146.8  166.901
 11.0476  27524.2  165.059
 11.2456  26907.1  163.737
 11.4436  27783.6  165.522
 11.6416  26362.4  161.578
 11.8396  25486.9  159.083
 12.0376  24707.5  156.279
 12.2356  24285.9  155.346
 12.4336  24286.6  154.902
 12.6316  24228.6  154.982
 12.8296  24239.1  154.614
 13.0276  24805.5  156.622
 13.2256  24920.5  157.362
 13.4236  24765.3  156.639
 13.6216  24980.6  157.316
 13.8196  27089.2  163.289
 14.0176  24077.8  154.522
 14.2156  23724  152.401
 14.4136  22488.6  149.778
 14.6116  22002.8  147.348
 14.8096  21459.6  145.492
 15.0076  20445.8  145.931
 15.2056  19447.5  138.119
 15.4036  18665.3  136.137
 15.6016  18333.7  134.016
 15.7996  17835  132.457
 15.9976  17543.9  134.284
 16.1956  17382.1  131.52
 16.3936  16884  128.807
 16.5916  16661.7  128.613
 16.7896  16758.5  129.034
 16.9876  16546.3  129.677
 17.1856  16212  126.731
 17.3836  15890.9  125.383
 17.5816  15690.5  125.08
 17.7796  15266.7  123.3
 17.9776  15013.4  123.062
 18.1756  15367.2  123.227
 18.3736  14853.7  121.638
 18.5716  14706.7  120.787
 18.7696  14559.9  119.743
 18.9676  14541.2  119.468
 19.1656  14164.8  118.497
 19.3636  14061.5  118.259
 19.5616  14112.3  118.642
 19.7596  14481.7  119.574
 19.9576  15030.4  121.864
 20.1556  13941.6  117.886
 20.3536  13711.2  116.293
 20.5516  13547.3  116.035
 20.7496  13237.2  114.642
 20.9476  13253.8  114.479
 21.1456  13201.9  114.565
 21.3436  13032.8  113.793
 21.5416  12974.5  113.549
 21.7396  12757.3  112.435
 21.9376  12651.3  111.738
 22.1356  12890  112.911
 22.3336  12491.8  111.436
 22.5316  12642.4  112.197
 22.7296  12618.7  111.449
 22.9276  12440.5  111.333
 23.1256  12629.5  111.652
 23.3236  12590.5  112.063
 23.5216  12657.3  111.996
 23.7196  12474.4  111.136
 23.9176  12684.4  111.811
 24.1156  12412.3  111.068
 24.3136  12049.3  110.242
 24.5116  12305.4  110.919
 24.7096  11794.9  108.397
 24.9076  11634.9  107.704
 25.1056  11342.4  106.79
 25.3036  11260.1  105.921
 25.5016  11192  105.636
 25.6996  11276.4  105.616
 25.8976  11246.2  105.916
 26.0956  11023.4  104.866
 26.2936  11084.5  104.814
 26.4916  11199  105.215
 26.6896  10910.9  104.161
 26.8876  10839.2  103.673
 27.0856  10564.7  102.409
 27.2836  10431.4  101.65
 27.4816  10477.7  101.815
 27.6796  10412.2  101.857
 27.8776  10529.7  102.294
 28.0756  10170  100.813
 28.2736  10240.3  100.741
 28.4716  10003.5  99.6196
 28.6696  10043.4  99.6697
 28.8676  9866.4  99.1375
 29.0656  9815.87  98.8559
 29.2636  9773.44  98.4351
 29.4616  9503.61  97.2449
 29.6596  9382.44  96.2007
 29.8576  9294.52  96.4264
 30.0556  9394.05  96.8184
 30.2536  9549.79  97.4125
 30.4516  9486.82  96.7397
 30.6496  9683.54  97.463
 30.8476  9583.32  97.4092
 31.0456  9627.32  97.6002
 31.2436  9551.7  96.4739
 31.4416  9409.64  95.9273
 31.6396  9400.76  95.9238
 31.8376  9367.05  95.2722
 32.0356  9404.89  96.0455
 32.2336  9327.71  95.0562
 32.4316  9028.59  93.9157
 32.6296  9061.3  93.9275
 32.8276  9094.23  93.8819
 33.0256  8994.71  93.4276
 33.2236  9046.22  93.8455
 33.4216  8985.04  93.2142
 33.6196  8954.67  93.3477
 33.8176  8965.5  93.5755
 34.0156  8813.02  92.3987
 34.2136  8941.6  93.0973
 34.4116  8710.72  92.0477
 34.6096  8739.27  92.0801
 34.8076  8629.24  91.9187
 35.0056  8560.95  91.2212
 35.2036  8769.07  92.5568
 35.4016  8511.37  91.0904
 35.5996  8469.65  90.901
 35.7976  8405.47  90.8311
 35.9956  8617.97  91.6258
 36.1936  8478.82  90.713
 36.3916  8305.29  89.9951
 36.5896  8408.52  91.5433
 36.7876  8204.78  89.8175
 36.9856  8066.97  89.0848
 37.1836  8132.03  88.5497
 37.3816  8137.64  88.9472
 37.5796  8130.97  90.6386
 37.7776  8269.42  89.7642
 37.9756  8268.11  89.6404
 38.1736  8165.84  89.2726
 38.3716  8141.2  89.4142
 38.5696  8087.01  89.4871
 38.7676  7952.27  88.255
 38.9656  8082.77  88.5883
 39.1636  8007.59  88.4564
 39.3616  8085  88.8166
 39.5596  7981.6  89.0889
 39.7576  7967.13  88.3938
 39.9556  8059.76  88.543
 40.1536  8059.16  88.7358
 40.3516  8080.81  88.8684
 40.5496  8134.21  89.4117
 40.7476  8115.66  89.3149
 40.9456  8050.23  88.7164
 41.1436  8090.58  88.6571
 41.3416  7957.03  88.257
 41.5396  7989.5  88.245
 41.7376  8005.87  88.5975
 41.9356  8004.16  88.4408
 42.1336  8142.63  89.3591
 42.3316  7981.86  88.6683
 42.5296  8020.67  88.393
 42.7276  7862.99  87.7678
 42.9256  7913.78  87.9192
 43.1236  7827.86  87.5407
 43.3216  7899.24  87.6922
 43.5196  7823.82  87.3291
 43.7176  7875.72  88.0223
 43.9156  7588.25  86.3178
 44.1136  7672.81  86.3455
 44.3116  7705.03  86.5426
 44.5096  7669.14  86.6521
 44.7076  7741.29  86.9865
 44.9056  7818.26  87.2909
 45.1036  7757.9  86.5673
 45.3016  7768.86  87.1391
 45.4996  7597.55  86.1172
 45.6976  7574.79  86.1629
 45.8956  7649.09  86.3966
 46.0936  7706.55  86.7262
 46.2916  7606.79  86.135
 46.4896  7635.87  86.3417
 46.6876  7528.32  86.4387
 46.8856  7618.78  86.2117
 47.0836  7461.38  85.567
 47.2816  7435.6  85.2954
 47.4796  7581.65  86.2415
 47.6776  7571.06  87.1476
 47.8756  7511.76  85.9654
 48.0736  7539.4  86.5846
 48.2716  7428.94  85.7617
 48.4696  7526.82  85.8967
 48.6676  7585.15  86.8419
 48.8656  7568.68  86.4754
 49.0636  7587.52  86.5206
 49.2616  7298.61  84.8977
 49.4596  7413.23  85.1159
 49.6576  7431.31  85.4466
 49.8556  7459.83  85.6342
 50.0536  7410.33  85.8082
 50.2516  7297.46  85.2939
 50.4496  7327.11  85.1076
 50.6476  7359.48  84.9682
 50.8456  7428.23  85.4424
 51.0436  7146.12  84.261
 51.2416  7081.19  83.5548
 51.4396  6998.36  83.471
 51.6376  6991.51  83.2479
 51.8356  7123.08  83.6299
 52.0336  7123.05  84.1693
 52.2316  7132.21  84.5967
 52.4296  7011.99  83.5729
 52.6276  6907.05  83.0535
 52.8256  7077.72  83.6276
 53.0236  7127.26  84.5713
 53.2216  7049.82  84.152
 53.4196  7021.91  83.8689
 53.6176  6874.59  83.5044
 53.8156  6972.36  83.763
 54.0136  6643.59  81.9343
 54.2116  6858.63  82.8769
 54.4096  6658.16  81.7257
 54.6076  6644.26  81.9907
 54.8056  6601.83  81.514
 55.0036  6607.94  81.9459
 55.2016  6709.11  82.0676
 55.3996  6436.26  80.3924
 55.5976  6573.3  81.443
 55.7956  6508.02  80.8264
 55.9936  6566.25  81.3216
 56.1916  6512.02  81.0156
 56.3896  6454.95  80.6487
 56.5876  6337.52  80.4737
 56.7856  6324.11  79.8895
 56.9836  6425.98  80.3054
 57.1816  6556.4  81.4777
 57.3796  6417.21  80.4129
 57.5776  6396.66  80.1638
 57.7756  6256.23  79.9621
 57.9736  6296.72  79.8968
 58.1716  6202.91  79.558
 58.3696  6010.45  78.0705
 58.5676  6065.43  77.8923
 58.7656  6082.37  78.6855
 58.9636  6101.61  78.835
 59.1616  5962.23  78.0658
 59.3596  6148.23  78.5309
 59.5576  6153.28  78.6201
 59.7556  5938.05  77.6475
 59.9536  6000.8  77.9559
 60.1516  5986.65  78.709
 60.1996  0.0000000E+00  0.0000000E+00