File: docs/examples/XRD/IS17_D/Data/IS17_D/17_Da_f00093.xye
# /beamlines/bl04/projects/cycle2025-II/20250340211-lsimonelli/DATA/IS17_D/17_Da_f00093.xye : mythproc.py merge -s 0.006 -l 0.5 -f /beamlines/bl04/inhouse/ff/FlatField/ff_20Nov2024rod8mm60s_17keV.raw -b True -c true -o xye /beamlines/bl04/projects/cycle2025-II/20250340211-lsimonelli/DATA/IS17_D/17_Da_00093.dat
# IsMon = [6759805, 6763620, 6764620]  IsPos = [-1.4999, -2.4884, -3.4989]
# Wave = 0.4962  CalPath /beamlines/bl04/projects/cycle2025-II/20250340211-lsimonelli/DATA/Align/Si_Pos1_25keV_f00001.cal
# Date = 2025-09-24_19:29:15 Dt = 4.8000  Bin = 0.0060  <imon> = 6762682 +/- 2075 (Min/Max) 6759805 / 6764620
# icurr 250.3571  mocoIn 1.7068E-05  mocoOut 0.8014  i15 7.08445e+06  imon 6.76268e+06  i7 3.6667  iEMpd_timer 4.8000  iEMpd_1 3.5684E-08  iEMpd_2 7.8533E-08  iEMpd_3 1.5693E-08  iEMpd_4 4.8669E-08  iEMhp_timer 4.8000  iEMhp_1 4.8892E-06  iEMhp_2 -2.5104E-08  iEMhp_3 -2.4835E-08  iEMhp_4 -2.0927E-08
#      9776
 1.7416  69498.7  263.758
 1.9396  45601.3  213.926
 2.1376  32216.7  179.808
 2.3356  28848.8  169.793
 2.5336  27092.4  165.122
 2.7316  25422.3  160.034
 2.9296  24360.1  156.826
 3.1276  23706.3  154.265
 3.3256  23539.5  153.378
 3.5236  25188.3  158.463
 3.7216  23128.6  153.07
 3.9196  22819.2  151.278
 4.1176  22632.7  150.437
 4.3156  23931.8  154.845
 4.5136  26340.1  161.437
 4.7116  27466.7  165.998
 4.9096  26822.8  163.476
 5.1076  26516.5  163.123
 5.3056  26794.5  163.694
 5.5036  26733.5  163.403
 5.7016  26982.5  164.134
 5.8996  27859.7  165.989
 6.0976  28538.1  169.452
 6.2956  28969.5  170.047
 6.4936  29362.4  170.397
 6.6916  29817  172.711
 6.8896  30565.9  174.718
 7.0876  31486.6  178.064
 7.2856  31415.7  176.922
 7.4836  31719.2  177.112
 7.6816  32634.8  180.183
 7.8796  33945.2  183.736
 8.0776  35147.4  187.941
 8.2756  37209.4  191.98
 8.4736  37868.6  193.482
 8.6716  37127.8  192.217
 8.8696  36956.2  192.264
 9.0676  35927.3  188.938
 9.2656  35002.9  187.177
 9.4636  34412.8  183.998
 9.6616  33963  183.572
 9.8596  32761.5  179.777
 10.0576  31004.8  175.548
 10.2556  29864.9  172.725
 10.4536  29012.6  169.851
 10.6516  28474.9  168.461
 10.8496  27578.8  165.198
 11.0476  26870  163.087
 11.2456  26144.3  161.393
 11.4436  26403.1  161.365
 11.6416  26246.4  161.246
 11.8396  24543  156.134
 12.0376  24451.5  155.471
 12.2356  23986.9  154.39
 12.4336  23940  153.784
 12.6316  23526.1  152.726
 12.8296  23777.3  153.172
 13.0276  24358.8  155.208
 13.2256  24329.6  155.488
 13.4236  24251.9  155.003
 13.6216  24284.7  155.135
 13.8196  24336.3  155.061
 14.0176  23812.3  153.569
 14.2156  23191.5  150.701
 14.4136  22378.6  149.405
 14.6116  22150.1  147.85
 14.8096  21282.4  144.904
 15.0076  20108.7  144.652
 15.2056  19777.5  139.283
 15.4036  18877.9  136.908
 15.6016  18761.8  135.563
 15.7996  18213.3  133.845
 15.9976  17325.4  134.09
 16.1956  16921.8  129.803
 16.3936  16487.9  127.309
 16.5916  16183  126.749
 16.7896  16261.7  127.12
 16.9876  16012  127.596
 17.1856  15929.1  125.633
 17.3836  15360  123.277
 17.5816  14837.2  121.64
 17.7796  14841.2  121.586
 17.9776  14731.9  121.92
 18.1756  14894.3  121.29
 18.3736  14764.3  121.277
 18.5716  14530.9  120.063
 18.7696  14365.4  118.952
 18.9676  14044.7  117.426
 19.1656  14034.3  117.929
 19.3636  14092.5  118.38
 19.5616  13692.2  116.857
 19.7596  13974.5  117.468
 19.9576  14219.3  118.541
 20.1556  14297.6  119.388
 20.3536  13577.1  115.727
 20.5516  13347.8  115.196
 20.7496  13123.8  114.163
 20.9476  13007.5  113.413
 21.1456  13161  114.397
 21.3436  13053.6  113.887
 21.5416  12764.8  112.621
 21.7396  12700  112.184
 21.9376  12648.7  111.717
 22.1356  12767.6  112.363
 22.3336  12624.1  112.021
 22.5316  12486.5  111.488
 22.7296  12517.1  110.993
 22.9276  12602.2  112.048
 23.1256  12818  112.479
 23.3236  12547.1  111.834
 23.5216  12379.7  110.763
 23.7196  12358.2  110.617
 23.9176  12332.7  110.263
 24.1156  12019.8  109.315
 24.3136  11753.3  108.886
 24.5116  11699.3  108.166
 24.7096  11384.8  106.521
 24.9076  11336.9  106.326
 25.1056  11131.4  105.816
 25.3036  11012.3  104.753
 25.5016  11079.8  105.104
 25.6996  11068.3  104.64
 25.8976  10882  104.188
 26.0956  10929.7  104.43
 26.2936  10955.4  104.197
 26.4916  10933.3  103.981
 26.6896  10692.1  103.111
 26.8876  10597  102.518
 27.0856  10570.7  102.431
 27.2836  10361.3  101.314
 27.4816  10265.3  100.771
 27.6796  10076  100.216
 27.8776  10113.5  100.264
 28.0756  10156.6  100.752
 28.2736  10127.4  100.196
 28.4716  9798.91  98.598
 28.6696  9927.05  99.0947
 28.8676  9725.01  98.4211
 29.0656  9681.8  98.1883
 29.2636  9668.7  97.9192
 29.4616  9520.57  97.3343
 29.6596  9617.08  97.3932
 29.8576  9606.84  98.0278
 30.0556  9495.1  97.3299
 30.2536  9668.88  98.0123
 30.4516  9343.47  96.0206
 30.6496  9396.44  96.0201
 30.8476  9358.41  96.2631
 31.0456  9298.17  95.9207
 31.2436  9217.9  94.7767
 31.4416  9258.73  95.1661
 31.6396  9139.74  94.5991
 31.8376  9272.28  94.8292
 32.0356  8995.64  93.9628
 32.2336  9067.93  93.7298
 32.4316  8943.77  93.4809
 32.6296  8961.13  93.4099
 32.8276  8957.09  93.1595
 33.0256  8858.57  92.7223
 33.2236  8807.64  92.61
 33.4216  8970.84  93.143
 33.6196  8764.09  92.3583
 33.8176  8827.87  92.855
 34.0156  8668.3  91.6403
 34.2136  8772.03  92.2259
 34.4116  8597.44  91.4447
 34.6096  8569.08  91.1803
 34.8076  8497.28  91.2055
 35.0056  8556.25  91.21
 35.2036  8414.37  90.658
 35.4016  8354.31  90.2552
 35.5996  8425.9  90.6756
 35.7976  8346.92  90.5279
 35.9956  8305.29  89.9357
 36.1936  8286.02  89.7159
 36.3916  8268.37  89.7932
 36.5896  8174.77  90.244
 36.7876  8275.44  90.1995
 36.9856  8093.62  89.2278
 37.1836  8094.79  88.3446
 37.3816  8323.38  89.9489
 37.5796  7986.21  89.8262
 37.7776  7987.99  88.2269
 37.9756  7883.87  87.5341
 38.1736  8117.15  89.0129
 38.3716  8091.83  89.1453
 38.5696  7940.4  88.6791
 38.7676  7728.83  87.0096
 38.9656  7915.74  87.6932
 39.1636  7730.73  86.9252
 39.3616  7910.95  87.8604
 39.5596  7758.73  87.8522
 39.7576  7810.02  87.5134
 39.9556  7915.58  87.742
 40.1536  7983.67  88.3236
 40.3516  7951.82  88.158
 40.5496  7908.75  88.1806
 40.7476  7916.11  88.2172
 40.9456  8028.48  88.5952
 41.1436  7954.02  87.9118
 41.3416  7918.22  88.0417
 41.5396  7849.55  87.4654
 41.7376  7941.08  88.2435
 41.9356  7819.07  87.4242
 42.1336  7735.65  87.1065
 42.3316  7712.11  87.1637
 42.5296  7732.33  86.8009
 42.7276  7803.53  87.4369
 42.9256  7751.31  87.0123
 43.1236  7708.18  86.8807
 43.3216  7768.45  86.9709
 43.5196  7576.33  85.9487
 43.7176  7600.65  86.4786
 43.9156  7514.74  85.8883
 44.1136  7385.64  84.7111
 44.3116  7546.85  85.6434
 44.5096  7512.69  85.7592
 44.7076  7545.16  85.8737
 44.9056  7493.45  85.4566
 45.1036  7252.84  83.7069
 45.3016  7306.18  84.5103
 45.4996  7345.9  84.6787
 45.6976  7187.66  83.9311
 45.8956  7379.55  84.8661
 46.0936  7275.62  84.2722
 46.2916  7316.43  84.4888
 46.4896  7364.16  84.7847
 46.6876  7251.02  84.849
 46.8856  7150.86  83.5175
 47.0836  7105.34  83.5041
 47.2816  7031.18  82.9441
 47.4796  7111.35  83.5179
 47.6776  6974.83  83.6475
 47.8756  6989.98  82.9253
 48.0736  7011.25  83.5037
 48.2716  6783.79  81.9467
 48.4696  6920.4  82.3743
 48.6676  6898.4  82.8215
 48.8656  6866  82.3713
 49.0636  6936.18  82.7336
 49.2616  6738.16  81.5656
 49.4596  6803.88  81.5441
 49.6576  6773.48  81.5785
 49.8556  6797.43  81.7462
 50.0536  6752.17  81.9097
 50.2516  6744.44  81.9938
 50.4496  6631.97  80.9689
 50.6476  6736.48  81.2968
 50.8456  6684.6  81.0604
 51.0436  6563.63  80.7568
 51.2416  6514.84  80.1334
 51.4396  6374.66  79.6599
 51.6376  6479.55  80.1358
 51.8356  6435.18  79.501
 52.0336  6447.06  80.0824
 52.2316  6313.91  79.5939
 52.4296  6456.51  80.1728
 52.6276  6383.57  79.8439
 52.8256  6469.67  79.9352
 53.0236  6278.84  79.3873
 53.2216  6314.3  79.646
 53.4196  6342.94  79.7485
 53.6176  6149.84  78.9923
 53.8156  6194.16  78.9571
 54.0136  6184.13  79.0539
 54.2116  6176.38  78.6776
 54.4096  6231.41  79.0735
 54.6076  6233.15  79.4317
 54.8056  6191.82  78.9571
 55.0036  6070.36  78.5698
 55.2016  6171.85  78.8227
 55.3996  6146.6  78.5751
 55.5976  6055.5  78.1798
 55.7956  6050.24  77.9684
 55.9936  6109.54  78.4844
 56.1916  6021.39  77.9328
 56.3896  6114.86  78.5214
 56.5876  6047.59  78.6358
 56.7856  6142.6  78.7393
 56.9836  6019.56  77.7286
 57.1816  6030.74  78.0766
 57.3796  6039.03  78.0249
 57.5776  6080.02  78.2094
 57.7756  5992.05  78.2869
 57.9736  5989.43  77.9458
 58.1716  6007.4  78.2991
 58.3696  6024.73  78.1593
 58.5676  6095.67  78.0893
 58.7656  6001.23  78.1564
 58.9636  6082.55  78.7164
 59.1616  6035.62  78.5342
 59.3596  6265.03  79.2647
 59.5576  6146.98  78.5714
 59.7556  5934.8  77.6179
 59.9536  6189.03  79.1606
 60.1516  6109.98  79.5071
 60.1996  6167.71  83.0605