File: docs/examples/XRD/IS17_D/Data/IS17_D/17_Da_f00143.xye
# /beamlines/bl04/projects/cycle2025-II/20250340211-lsimonelli/DATA/IS17_D/17_Da_f00143.xye : mythproc.py merge -s 0.006 -l 0.5 -f /beamlines/bl04/inhouse/ff/FlatField/ff_20Nov2024rod8mm60s_17keV.raw -b True -c true -o xye /beamlines/bl04/projects/cycle2025-II/20250340211-lsimonelli/DATA/IS17_D/17_Da_00143.dat
# IsMon = [6771357, 6773816, 6769939]  IsPos = [-1.4999, -2.4884, -3.4988]
# Wave = 0.4962  CalPath /beamlines/bl04/projects/cycle2025-II/20250340211-lsimonelli/DATA/Align/Si_Pos1_25keV_f00001.cal
# Date = 2025-09-25_09:25:44 Dt = 4.8000  Bin = 0.0060  <imon> = 6771704 +/- 1602 (Min/Max) 6769939 / 6773816
# icurr 251.2811  mocoIn 1.7148E-05  mocoOut 0.8047  i15 7.09031e+06  imon 6.7717e+06  i7 4.3333  iEMpd_timer 4.8000  iEMpd_1 3.6315E-08  iEMpd_2 7.8822E-08  iEMpd_3 1.9312E-08  iEMpd_4 4.9852E-08  iEMhp_timer 4.8000  iEMhp_1 4.9094E-06  iEMhp_2 -2.7121E-08  iEMhp_3 -2.3431E-08  iEMhp_4 -2.2205E-08
#      9776
 1.7416  70352.2  265.323
 1.9396  46082.9  215.011
 2.1376  32465.8  180.468
 2.3356  29169.4  170.701
 2.5336  27100.2  165.114
 2.7316  25300.6  159.633
 2.9296  24461.3  157.13
 3.1276  24031.2  155.296
 3.3256  23612.2  153.596
 3.5236  25395.1  159.092
 3.7216  23313  153.682
 3.9196  22839.3  151.35
 4.1176  22795.4  150.971
 4.3156  24131.9  155.503
 4.5136  26503.7  161.932
 4.7116  27369.6  165.702
 4.9096  26840.4  163.533
 5.1076  26557.7  163.239
 5.3056  26892.4  164.002
 5.5036  26931.8  164.005
 5.7016  27414.7  165.442
 5.8996  27846.3  165.954
 6.0976  28719.5  169.983
 6.2956  28982.8  170.094
 6.4936  29695.2  171.359
 6.6916  29976.9  173.174
 6.8896  30751.7  175.25
 7.0876  31888.7  179.192
 7.2856  31710.6  177.748
 7.4836  32199.7  178.449
 7.6816  33155.2  181.613
 7.8796  34500.9  185.258
 8.0776  36412.8  191.314
 8.2756  38136.3  194.383
 8.4736  38530.9  195.182
 8.6716  37944.8  194.326
 8.8696  38088.3  195.197
 9.0676  37147  192.13
 9.2656  36111.2  190.116
 9.4636  35663.6  187.337
 9.6616  34984.9  186.336
 9.8596  33561  181.93
 10.0576  31830.2  177.844
 10.2556  30738.4  175.206
 10.4536  30406.9  173.861
 10.6516  30625.2  174.69
 10.8496  28469.9  167.853
 11.0476  27926.9  166.256
 11.2456  27628.7  165.91
 11.4436  27451.9  164.536
 11.6416  26689.7  162.599
 11.8396  25243.1  158.338
 12.0376  25057  157.395
 12.2356  24770  156.889
 12.4336  24587.7  155.851
 12.6316  24297.2  155.204
 12.8296  24463.7  155.369
 13.0276  25134.6  157.667
 13.2256  25056.4  157.788
 13.4236  24939.2  157.19
 13.6216  24848.8  156.918
 13.8196  25078  157.405
 14.0176  24293.6  155.213
 14.2156  23908.4  153.013
 14.4136  22615.4  150.195
 14.6116  22401.4  148.686
 14.8096  21901.6  147.01
 15.0076  20498.5  146.051
 15.2056  20301.1  141.129
 15.4036  19259.7  138.302
 15.6016  19051.7  136.62
 15.7996  18407.9  134.579
 15.9976  17702.2  134.927
 16.1956  17173.3  130.769
 16.3936  16809.1  128.548
 16.5916  16850.2  129.345
 16.7896  16598.6  128.436
 16.9876  16523.7  129.615
 17.1856  16121.2  126.372
 17.3836  15837.4  125.15
 17.5816  15489.4  124.267
 17.7796  15253.1  123.244
 17.9776  15110.5  123.48
 18.1756  15430.7  123.459
 18.3736  15186.7  122.991
 18.5716  14998.9  121.983
 18.7696  14989.6  121.506
 18.9676  14552  119.523
 19.1656  14507.3  119.906
 19.3636  14369.8  119.539
 19.5616  14264.8  119.278
 19.7596  14383  119.162
 19.9576  14809.1  120.967
 20.1556  14316.6  119.473
 20.3536  13786.1  116.612
 20.5516  13628.5  116.399
 20.7496  13364.3  115.204
 20.9476  13394  115.081
 21.1456  13498.8  115.859
 21.3436  13252.7  114.756
 21.5416  13166.3  114.372
 21.7396  12998.5  113.495
 21.9376  12904.2  112.847
 22.1356  13023.8  113.478
 22.3336  12940.6  113.417
 22.5316  13020.3  113.853
 22.7296  12870.1  112.556
 22.9276  12905.1  113.393
 23.1256  13106.4  113.754
 23.3236  12863.2  113.261
 23.5216  12800.7  112.636
 23.7196  12634.1  111.843
 23.9176  12503.1  111.014
 24.1156  12291.3  110.547
 24.3136  12106.5  110.495
 24.5116  11995.4  109.512
 24.7096  11683.9  107.898
 24.9076  11507.5  107.105
 25.1056  11379.2  106.974
 25.3036  11277.9  106.007
 25.5016  11129.4  105.341
 25.6996  11301.8  105.736
 25.8976  11195.5  105.673
 26.0956  11222.7  105.826
 26.2936  11194.3  105.326
 26.4916  11279.5  105.607
 26.6896  10917.2  104.199
 26.8876  10784.1  103.412
 27.0856  10827.7  103.68
 27.2836  10571.5  102.331
 27.4816  10564.7  102.233
 27.6796  10424.6  101.933
 27.8776  10437.1  101.85
 28.0756  10347.3  101.697
 28.2736  10382.2  101.448
 28.4716  10061.5  99.9191
 28.6696  10083.7  99.8694
 28.8676  9922.28  99.4176
 29.0656  9882.97  99.2034
 29.2636  9873.7  98.945
 29.4616  9968.99  99.6091
 29.6596  9884.43  98.7465
 29.8576  9736.1  98.6949
 30.0556  9661.89  98.2001
 30.2536  9849.76  98.9356
 30.4516  9684.68  97.7625
 30.6496  9786.5  97.9946
 30.8476  9613.19  97.5724
 31.0456  9458.53  96.7399
 31.2436  9387.89  95.6477
 31.4416  9382  95.7838
 31.6396  9610.62  96.9913
 31.8376  9563.52  96.2943
 32.0356  9241.05  95.2136
 32.2336  9207.73  94.4393
 32.4316  9082.33  94.2002
 32.6296  9040.83  93.8193
 32.8276  9187.86  94.3659
 33.0256  9049.43  93.7242
 33.2236  9030.91  93.7707
 33.4216  9110.04  93.875
 33.6196  9050.88  93.8571
 33.8176  9090.06  94.2284
 34.0156  8987.79  93.3039
 34.2136  8790.05  92.3137
 34.4116  8783.16  92.4356
 34.6096  8770.32  92.2385
 34.8076  8698.62  92.2731
 35.0056  8714.06  92.0445
 35.2036  8706.12  92.2116
 35.4016  8706.35  92.1386
 35.5996  8598.27  91.6008
 35.7976  8497.53  91.3364
 35.9956  8463.76  90.8014
 36.1936  8397.16  90.3037
 36.3916  8402.49  90.5099
 36.5896  8499.38  92.0056
 36.7876  8415.02  90.9619
 36.9856  8375.77  90.7772
 37.1836  8381.15  89.9025
 37.3816  8436.61  90.573
 37.5796  8271.28  91.4183
 37.7776  8144.17  89.0814
 37.9756  8157.35  89.0387
 38.1736  8334.09  90.1983
 38.3716  8267.09  90.1139
 38.5696  8160.06  89.8987
 38.7676  7934.73  88.1501
 38.9656  7997.53  88.1332
 39.1636  7943.08  88.0992
 39.3616  8071.32  88.7285
 39.5596  7986.89  89.1283
 39.7576  7923.82  88.1537
 39.9556  7951.28  87.9386
 40.1536  8157.96  89.2832
 40.3516  8127.76  89.1284
 40.5496  8102.07  89.2499
 40.7476  8086.39  89.1634
 40.9456  8297.54  90.0668
 41.1436  8100.39  88.7114
 41.3416  8049.04  88.7684
 41.5396  7874.82  87.6107
 41.7376  7920.33  88.1255
 41.9356  7978.53  88.3106
 42.1336  8007.77  88.6175
 42.3316  7946.14  88.4774
 42.5296  7937.44  87.9369
 42.7276  7964.68  88.3361
 42.9256  7963.44  88.1924
 43.1236  7977.65  88.3871
 43.3216  7865.42  87.512
 43.5196  7752.69  86.9428
 43.7176  7699.3  87.0409
 43.9156  7710.08  87.0062
 44.1136  7593.26  85.9014
 44.3116  7739.42  86.7375
 44.5096  7660.44  86.6013
 44.7076  7639.14  86.4149
 44.9056  7599.75  86.0654
 45.1036  7582.84  85.5963
 45.3016  7484.15  85.538
 45.4996  7432.59  85.1807
 45.6976  7339.14  84.8169
 45.8956  7474.5  85.4006
 46.0936  7458.18  85.3127
 46.2916  7540.84  85.7623
 46.4896  7507.14  85.606
 46.6876  7331.14  85.2991
 46.8856  7336.74  84.605
 47.0836  7219.77  84.1722
 47.2816  7115.91  83.4404
 47.4796  7220.48  84.1668
 47.6776  7141.16  84.6456
 47.8756  7220.54  84.2794
 48.0736  7181.18  84.5141
 48.2716  7040.46  83.4873
 48.4696  7147.6  83.7221
 48.6676  7004.74  83.4549
 48.8656  7052.73  83.4542
 49.0636  6994.52  83.0711
 49.2616  6919.63  82.6639
 49.4596  6897.8  82.1129
 49.6576  6908.72  82.3946
 49.8556  6786.88  81.6801
 50.0536  6882.02  82.693
 50.2516  6941.65  83.1947
 50.4496  6820.52  82.1085
 50.6476  6852.25  81.9918
 50.8456  6843.76  82.0301
 51.0436  6698.4  81.5909
 51.2416  6762.81  81.6592
 51.4396  6557.66  80.8025
 51.6376  6652.59  81.204
 51.8356  6679.06  80.9981
 52.0336  6537.49  80.6473
 52.2316  6501.91  80.7776
 52.4296  6554.57  80.7996
 52.6276  6509.8  80.6412
 52.8256  6512.28  80.2095
 53.0236  6443.61  80.409
 53.2216  6399.43  80.1714
 53.4196  6419.23  80.2189
 53.6176  6388.1  80.4993
 53.8156  6333.18  79.8237
 54.0136  6395.9  80.404
 54.2116  6381.13  79.9679
 54.4096  6433.84  80.3504
 54.6076  6373.79  80.3272
 54.8056  6283.22  79.54
 55.0036  6249.57  79.7163
 55.2016  6282.71  79.4722
 55.3996  6293.36  79.5112
 55.5976  6321.06  79.8773
 55.7956  6276  79.398
 55.9936  6229.57  79.2422
 56.1916  6249.51  79.3917
 56.3896  6306.27  79.743
 56.5876  6110.58  79.0407
 56.7856  6129.59  78.6509
 56.9836  6139.95  78.5052
 57.1816  6193.27  79.2198
 57.3796  6259.13  79.437
 57.5776  6192.73  78.9352
 57.7756  6152.23  79.3229
 57.9736  6283.03  79.8317
 58.1716  6253.81  79.8923
 58.3696  6160.94  79.0427
 58.5676  6203.24  78.7822
 58.7656  6229.75  79.6367
 58.9636  6401.43  80.7539
 59.1616  6237.56  79.8473
 59.3596  6362.1  79.8981
 59.5576  6336.54  79.7955
 59.7556  6143.93  78.9953
 59.9536  6318.84  80.0084
 60.1516  6278.6  80.6188
 60.1996  0.0000000E+00  0.0000000E+00