File: docs/examples/XRD/IS17_D/Data/IS17_D/17_Db_f00123.xye
# /beamlines/bl04/projects/cycle2025-II/20250340211-lsimonelli/DATA/IS17_D/17_Db_f00123.xye : mythproc.py merge -s 0.006 -l 0.5 -f /beamlines/bl04/inhouse/ff/FlatField/ff_20Nov2024rod8mm60s_17keV.raw -b True -c true -o xye /beamlines/bl04/projects/cycle2025-II/20250340211-lsimonelli/DATA/IS17_D/17_Db_00123.dat
# IsMon = [6780248, 6778019, 6781585]  IsPos = [-1.5000, -2.4884, -3.4988]
# Wave = 0.4962  CalPath /beamlines/bl04/projects/cycle2025-II/20250340211-lsimonelli/DATA/Align/Si_Pos1_25keV_f00001.cal
# Date = 2025-09-25_04:00:23 Dt = 4.8000  Bin = 0.0060  <imon> = 6779951 +/- 1471 (Min/Max) 6778019 / 6781585
# icurr 252.4611  mocoIn 1.7213E-05  mocoOut 0.8079  i15 7.10165e+06  imon 6.77995e+06  i7 4.3333  iEMpd_timer 4.8000  iEMpd_1 3.4589E-08  iEMpd_2 7.7544E-08  iEMpd_3 1.7642E-08  iEMpd_4 4.8730E-08  iEMhp_timer 4.8000  iEMhp_1 4.9307E-06  iEMhp_2 -2.4355E-08  iEMhp_3 -2.5077E-08  iEMhp_4 -2.1468E-08
#      9776
 1.7416  70643.4  265.859
 1.9396  49312.3  222.398
 2.1376  36002.5  190.034
 2.3356  32651.3  180.594
 2.5336  29835.2  173.238
 2.7316  27442.5  166.274
 2.9296  26423.8  163.322
 3.1276  26112.3  161.882
 3.3256  25190.6  158.67
 3.5236  26684.6  163.101
 3.7216  24743.2  158.315
 3.9196  23889.7  154.758
 4.1176  23900.4  154.583
 4.3156  24962.8  158.149
 4.5136  27197.5  164.051
 4.7116  28320.9  168.547
 4.9096  27577.2  165.752
 5.1076  27303.7  165.507
 5.3056  27484.6  165.768
 5.5036  27205.3  164.851
 5.7016  27502.3  165.699
 5.8996  28148.8  166.86
 6.0976  29070.1  170.997
 6.2956  29191.3  170.704
 6.4936  30052.7  172.381
 6.6916  30232.3  173.892
 6.8896  30885.3  175.607
 7.0876  32340.4  180.361
 7.2856  31969.9  178.458
 7.4836  32584  179.499
 7.6816  33308.9  182.01
 7.8796  34238.7  184.549
 8.0776  35427.9  188.714
 8.2756  37391.4  192.468
 8.4736  37810.9  193.36
 8.6716  37137.3  192.269
 8.8696  37910.2  194.738
 9.0676  37056.5  191.855
 9.2656  36453.5  190.992
 9.4636  35419.8  186.702
 9.6616  34507.5  185.023
 9.8596  33870.4  182.759
 10.0576  31950.7  178.193
 10.2556  31073.4  176.174
 10.4536  29981.1  172.651
 10.6516  29458.6  171.353
 10.8496  28108.4  166.774
 11.0476  27446.4  164.819
 11.2456  26595  162.787
 11.4436  27200.8  163.788
 11.6416  26672  162.515
 11.8396  25173.7  158.105
 12.0376  24879.4  156.806
 12.2356  24409.2  155.752
 12.4336  24403.8  155.271
 12.6316  24283.3  155.148
 12.8296  24359.4  155.005
 13.0276  24622.5  156.054
 13.2256  24814.3  157.028
 13.4236  24665.6  156.327
 13.6216  24955.2  157.24
 13.8196  27128.4  163.399
 14.0176  24091.2  154.563
 14.2156  23709.2  152.363
 14.4136  22633.1  150.253
 14.6116  22203.6  148.004
 14.8096  21415.5  145.34
 15.0076  20609.6  146.508
 15.2056  19567.3  138.557
 15.4036  18690  136.243
 15.6016  18314.7  133.956
 15.7996  17943.1  132.856
 15.9976  17713.2  134.921
 16.1956  17047.9  130.253
 16.3936  16953.5  129.047
 16.5916  16575.3  128.254
 16.7896  16644.7  128.57
 16.9876  16603.4  129.91
 17.1856  16252.5  126.905
 17.3836  15987.3  125.772
 17.5816  15509.8  124.359
 17.7796  15311.7  123.495
 17.9776  14968.2  122.868
 18.1756  15159.6  122.392
 18.3736  14714.3  121.073
 18.5716  14505.8  119.951
 18.7696  14729.4  120.434
 18.9676  14523.1  119.391
 19.1656  14145.9  118.413
 19.3636  14128.8  118.546
 19.5616  14068.4  118.458
 19.7596  14451.9  119.448
 19.9576  14907  121.36
 20.1556  14295.1  119.375
 20.3536  13911.3  117.142
 20.5516  13530.6  115.973
 20.7496  13356.8  115.072
 20.9476  13296.6  114.657
 21.1456  13184.2  114.5
 21.3436  13034.5  113.8
 21.5416  13016.9  113.737
 21.7396  12873.3  112.943
 21.9376  12786.7  112.336
 22.1356  12878.4  113.017
 22.3336  12533.7  111.636
 22.5316  12472.4  111.449
 22.7296  12600.2  111.379
 22.9276  12505.9  111.636
 23.1256  12596.2  111.509
 23.3236  12821.9  113.073
 23.5216  12679.6  112.075
 23.7196  12778.2  112.687
 23.9176  12702.5  111.883
 24.1156  12302.6  110.567
 24.3136  12070.7  110.338
 24.5116  12238.8  110.622
 24.7096  11856.1  108.695
 24.9076  11689.2  107.948
 25.1056  11361.1  106.889
 25.3036  11249  105.875
 25.5016  11153  105.457
 25.6996  11161.9  105.076
 25.8976  11260.8  105.975
 26.0956  11014.1  104.815
 26.2936  11119.2  104.983
 26.4916  11248.6  105.446
 26.6896  10917.1  104.183
 26.8876  10820.2  103.576
 27.0856  10643.2  102.785
 27.2836  10524.4  102.105
 27.4816  10492.7  101.882
 27.6796  10346.1  101.541
 27.8776  10560.2  102.441
 28.0756  10214.6  101.042
 28.2736  10181.9  100.451
 28.4716  10126.9  100.233
 28.6696  9972.12  99.3098
 28.8676  9948.76  99.5551
 29.0656  9764.92  98.6048
 29.2636  9871.11  98.932
 29.4616  9569.42  97.5934
 29.6596  9556.08  97.0944
 29.8576  9238.84  96.1436
 30.0556  9499.07  97.359
 30.2536  9576.29  97.5519
 30.4516  9466.34  96.6207
 30.6496  9658.78  97.3321
 30.8476  9659.73  97.7869
 31.0456  9608.44  97.4884
 31.2436  9599  96.6955
 31.4416  9284.84  95.2983
 31.6396  9554.74  96.7185
 31.8376  9519.34  96.0622
 32.0356  9367.3  95.8426
 32.2336  9419.65  95.5242
 32.4316  9069.3  94.136
 32.6296  9026.49  93.7497
 32.8276  9182.24  94.3381
 33.0256  9055.24  93.725
 33.2236  9115.47  94.2014
 33.4216  9029.22  93.4388
 33.6196  8961.38  93.3898
 33.8176  8963.89  93.5688
 34.0156  8851.04  92.6028
 34.2136  8946.14  93.1158
 34.4116  8630.36  91.6302
 34.6096  8715.8  91.9583
 34.8076  8670.66  92.1361
 35.0056  8648.34  91.686
 35.2036  8933.66  93.416
 35.4016  8559.18  91.3566
 35.5996  8543.33  91.3062
 35.7976  8573.44  91.7293
 35.9956  8732.33  92.2329
 36.1936  8677.46  91.7695
 36.3916  8436.82  90.702
 36.5896  8414.13  91.5758
 36.7876  8109.41  89.3003
 36.9856  7931.18  88.3359
 37.1836  8134.15  88.5662
 37.3816  8076.48  88.6135
 37.5796  8294.3  91.5388
 37.7776  8334.99  90.1059
 37.9756  8229.03  89.4179
 38.1736  8290.4  89.9458
 38.3716  8159.24  89.5023
 38.5696  8127.92  89.7158
 38.7676  8033.81  88.7105
 38.9656  8092.01  88.6501
 39.1636  8172.97  89.3739
 39.3616  8031.99  88.5368
 39.5596  7910.38  88.6893
 39.7576  7909.93  88.0767
 39.9556  8030.38  88.3799
 40.1536  8074.39  88.8168
 40.3516  8128.94  89.1286
 40.5496  8028.48  88.8431
 40.7476  8179.35  89.667
 40.9456  8072.53  88.8415
 41.1436  8192.35  89.2077
 41.3416  7890.14  87.8859
 41.5396  7981.98  88.2028
 41.7376  8033.62  88.7466
 41.9356  8008.47  88.4632
 42.1336  8035.26  88.7458
 42.3316  7848.03  87.9262
 42.5296  8042.05  88.5138
 42.7276  7915.67  88.0613
 42.9256  8002.22  88.4081
 43.1236  7916.99  88.0384
 43.3216  7936.76  87.8971
 43.5196  7790.83  87.1526
 43.7176  7765.3  87.4018
 43.9156  7620.99  86.5102
 44.1136  7733.2  86.6926
 44.3116  7671.02  86.3528
 44.5096  7567.06  86.0789
 44.7076  7688.86  86.6968
 44.9056  7803.44  87.1997
 45.1036  7734.52  86.434
 45.3016  7718.01  86.8436
 45.4996  7826.36  87.393
 45.6976  7570.14  86.1294
 45.8956  7686.29  86.6112
 46.0936  7716.57  86.5292
 46.2916  7696.47  86.6432
 46.4896  7728.52  86.859
 46.6876  7604.9  86.8804
 46.8856  7544.98  85.793
 47.0836  7567.86  86.1781
 47.2816  7433.71  85.2905
 47.4796  7628.01  86.5075
 47.6776  7341.06  85.8196
 47.8756  7521.95  86.0232
 48.0736  7522.29  86.4876
 48.2716  7383.13  85.4969
 48.4696  7499.31  85.7402
 48.6676  7537.67  86.5772
 48.8656  7541.71  86.3105
 49.0636  7630.21  86.7652
 49.2616  7349.85  85.1997
 49.4596  7445.52  85.292
 49.6576  7319.52  84.8038
 49.8556  7444.19  85.547
 50.0536  7441.39  85.9873
 50.2516  7369.7  85.7073
 50.4496  7357.89  85.2925
 50.6476  7314.97  84.7121
 50.8456  7392.96  85.2495
 51.0436  7240.34  84.828
 51.2416  7126.35  83.8185
 51.4396  6932.53  83.0832
 51.6376  7112.69  83.9745
 51.8356  7159.84  83.8701
 52.0336  7070.74  83.8512
 52.2316  7036.5  84.0182
 52.4296  7023.91  83.6352
 52.6276  6882.06  82.8912
 52.8256  7164.59  84.1295
 53.0236  7119.74  84.5325
 53.2216  7099.6  84.4247
 53.4196  6997.07  83.7322
 53.6176  7062.68  84.6465
 53.8156  6920.89  83.4543
 54.0136  6787.6  82.8149
 54.2116  6862.89  82.8945
 54.4096  6722.83  82.1203
 54.6076  6685.26  82.2396
 54.8056  6608.67  81.5358
 55.0036  6723.5  82.515
 55.2016  6614.58  81.4114
 55.3996  6489.52  80.7252
 55.5976  6610.13  81.6652
 55.7956  6538.42  81.0336
 55.9936  6656.11  81.8847
 56.1916  6489.83  80.8973
 56.3896  6343.26  79.9529
 56.5876  6366.06  80.6628
 56.7856  6365.89  80.1449
 56.9836  6474.2  80.5859
 57.1816  6590.26  81.6681
 57.3796  6263.15  79.4493
 57.5776  6308.31  79.6387
 57.7756  6260.08  80.001
 57.9736  6303.2  79.9443
 58.1716  6255.17  79.8946
 58.3696  6017.34  78.1216
 58.5676  6103.6  78.1389
 58.7656  6022.71  78.3045
 58.9636  6119.63  78.9579
 59.1616  5991.38  78.2579
 59.3596  6176.56  78.7049
 59.5576  6139.3  78.5241
 59.7556  5910.46  77.4604
 59.9536  5972.15  77.763
 60.1516  6097.7  79.429
 60.1996  0.0000000E+00  0.0000000E+00