File: docs/examples/XRD/IS17_D/Data/IS17_D/17_Db_f00037.xye
# /beamlines/bl04/projects/cycle2025-II/20250340211-lsimonelli/DATA/IS17_D/17_Db_f00037.xye : mythproc.py merge -s 0.006 -l 0.5 -f /beamlines/bl04/inhouse/ff/FlatField/ff_20Nov2024rod8mm60s_17keV.raw -b True -c true -o xye /beamlines/bl04/projects/cycle2025-II/20250340211-lsimonelli/DATA/IS17_D/17_Db_00037.dat
# IsMon = [6782551, 6780475, 6783111]  IsPos = [-1.4999, -2.4886, -3.4985]
# Wave = 0.4962  CalPath /beamlines/bl04/projects/cycle2025-II/20250340211-lsimonelli/DATA/Align/Si_Pos1_25keV_f00001.cal
# Date = 2025-09-24_04:00:26 Dt = 4.8000  Bin = 0.0060  <imon> = 6782046 +/- 1134 (Min/Max) 6780475 / 6783111
# icurr 252.5399  mocoIn 1.7226E-05  mocoOut 0.8083  i15 7.1009e+06  imon 6.78205e+06  i7 6.0000  iEMpd_timer 4.8000  iEMpd_1 3.3857E-08  iEMpd_2 7.7494E-08  iEMpd_3 1.6032E-08  iEMpd_4 4.7985E-08  iEMhp_timer 4.8000  iEMhp_1 4.9340E-06  iEMhp_2 -2.4415E-08  iEMhp_3 -2.2571E-08  iEMhp_4 -2.1737E-08
#      9776
 1.7416  71567.6  267.588
 1.9396  49469.3  222.764
 2.1376  36086.2  190.253
 2.3356  32355  179.77
 2.5336  29864.1  173.319
 2.7316  27251.6  165.696
 2.9296  26204.6  162.636
 3.1276  25750.7  160.748
 3.3256  24922.1  157.816
 3.5236  26536.5  162.783
 3.7216  24029  156.018
 3.9196  23530.2  153.587
 4.1176  23591.6  153.575
 4.3156  24362.1  156.237
 4.5136  26847.8  162.989
 4.7116  27792.6  166.966
 4.9096  27260.5  164.801
 5.1076  26922.6  164.348
 5.3056  26782.4  163.73
 5.5036  26522.4  162.772
 5.7016  26959.9  164.062
 5.8996  27474.3  164.851
 6.0976  28459.3  169.19
 6.2956  28314.6  168.114
 6.4936  29307.3  170.229
 6.6916  29338.5  171.296
 6.8896  30206.9  173.661
 7.0876  31304.9  177.545
 7.2856  30807.6  175.177
 7.4836  31257.4  175.804
 7.6816  31853.6  177.98
 7.8796  32603  180.084
 8.0776  34071.9  185.068
 8.2756  35693.3  188.055
 8.4736  36271.3  189.383
 8.6716  35264.5  187.355
 8.8696  36160  190.192
 9.0676  35316.3  187.292
 9.2656  34453.2  185.672
 9.4636  33367.2  181.279
 9.6616  32527.1  179.628
 9.8596  31897.6  177.349
 10.0576  30545.4  173.852
 10.2556  29148.2  170.635
 10.4536  28100.8  167.142
 10.6516  27411.4  165.29
 10.8496  26202  161.02
 11.0476  25327.8  158.289
 11.2456  24787.4  157.604
 11.4436  24913.7  156.748
 11.6416  25876.7  160.085
 11.8396  23872.5  153.947
 12.0376  23307.9  151.771
 12.2356  23132.9  151.649
 12.4336  22936.5  150.529
 12.6316  23005.2  151.01
 12.8296  23055.5  150.799
 13.0276  23419.5  152.193
 13.2256  23522.4  152.881
 13.4236  23790.6  153.525
 13.6216  23890.7  153.844
 13.8196  25725.8  158.921
 14.0176  22936.2  150.863
 14.2156  22706.9  149.1
 14.4136  21458.2  146.301
 14.6116  21181.8  144.559
 14.8096  20528.1  142.3
 15.0076  19560.7  142.727
 15.2056  18589.3  135.051
 15.4036  17768.8  132.845
 15.6016  17412.3  130.615
 15.7996  17066.6  129.114
 15.9976  16793.5  131.352
 16.1956  16499.6  128.136
 16.3936  16094  125.746
 16.5916  15947.4  125.812
 16.7896  15814.4  125.333
 16.9876  15831.7  126.844
 17.1856  15774.5  124.898
 17.3836  15253.8  122.848
 17.5816  14837.4  121.633
 17.7796  14479.1  120.083
 17.9776  14029.9  118.959
 18.1756  14012.7  117.594
 18.3736  13814.2  117.302
 18.5716  13709.8  116.618
 18.7696  13862.4  116.826
 18.9676  13622.2  115.625
 19.1656  13243.9  114.756
 19.3636  13334.9  115.206
 19.5616  13316.6  115.248
 19.7596  13511.6  115.49
 19.9576  13593  115.889
 20.1556  14493.2  120.193
 20.3536  13518.7  115.471
 20.5516  12982.1  113.587
 20.7496  12600.1  111.852
 20.9476  12747.3  112.261
 21.1456  12598.3  111.926
 21.3436  12494.3  111.407
 21.5416  12371.2  110.875
 21.7396  12383.6  110.78
 21.9376  12097.6  109.272
 22.1356  12123.7  109.392
 22.3336  11953.5  108.998
 22.5316  11999.2  109.317
 22.7296  12069.8  109.015
 22.9276  11870.8  108.763
 23.1256  12068.7  109.154
 23.3236  12280.7  110.663
 23.5216  12259.7  110.209
 23.7196  12180.1  109.807
 23.9176  12181.5  109.565
 24.1156  11950  108.969
 24.3136  11711.4  108.686
 24.5116  11609.1  107.738
 24.7096  11347.6  106.325
 24.9076  11267.1  105.976
 25.1056  10871.9  104.297
 25.3036  10715.2  103.396
 25.5016  10802.6  103.787
 25.6996  10684.1  102.802
 25.8976  10531.9  102.484
 26.0956  10524.9  102.468
 26.2936  10540  102.211
 26.4916  10827  103.456
 26.6896  10408.4  101.723
 26.8876  10330.4  101.201
 27.0856  10242.4  100.794
 27.2836  10044.4  99.8993
 27.4816  9951.12  99.2199
 27.6796  9951.57  99.5828
 27.8776  10032.3  99.8416
 28.0756  9760.38  98.7725
 28.2736  9788.31  98.4973
 28.4716  9530.72  97.2446
 28.6696  9474.26  96.8029
 28.8676  9406.82  96.8043
 29.0656  9396.16  96.7251
 29.2636  9509.88  97.0178
 29.4616  9116  95.2555
 29.6596  9155.24  95.0378
 29.8576  9019.89  94.995
 30.0556  9014.03  94.8395
 30.2536  9101.82  95.1061
 30.4516  9182.89  95.163
 30.6496  9310.51  95.5613
 30.8476  9124.61  95.0351
 31.0456  9179.3  95.2852
 31.2436  9217.68  94.7628
 31.4416  9075.34  94.215
 31.6396  9057.29  94.1485
 31.8376  8982.25  93.2829
 32.0356  8953.53  93.6987
 32.2336  8848.29  92.5777
 32.4316  8712.69  92.2623
 32.6296  8705.92  91.9986
 32.8276  8686.93  91.7543
 33.0256  8548.35  91.0719
 33.2236  8646.66  91.7461
 33.4216  8450.89  90.4355
 33.6196  8589.6  91.46
 33.8176  8559.41  91.4298
 34.0156  8529.94  90.9063
 34.2136  8610.81  91.3552
 34.4116  8207.76  89.3569
 34.6096  8297.79  89.7225
 34.8076  8302.53  90.1593
 35.0056  8217.45  89.3682
 35.2036  8522.68  91.245
 35.4016  8199.54  89.4123
 35.5996  8170.89  89.2891
 35.7976  8145.76  89.404
 35.9956  8304.44  89.9402
 36.1936  8269.68  89.6038
 36.3916  8072.32  88.7158
 36.5896  8032.1  89.9316
 36.7876  7890.77  88.0826
 36.9856  7759.85  87.3815
 37.1836  7607.93  85.6525
 37.3816  7731.96  86.7049
 37.5796  7850.42  89.057
 37.7776  7979.68  88.1678
 37.9756  7983.56  88.0734
 38.1736  7998.74  88.3468
 38.3716  8000.32  88.6181
 38.5696  7656.22  87.0588
 38.7676  7634.32  86.4736
 38.9656  7691.15  86.4252
 39.1636  7794.42  87.2499
 39.3616  7729.6  86.849
 39.5596  7542.69  86.6072
 39.7576  7536.51  85.9746
 39.9556  7713.29  86.6222
 40.1536  7793.62  87.2514
 40.3516  7725.18  86.9622
 40.5496  7858.33  87.6666
 40.7476  7773.23  87.4111
 40.9456  7842.8  87.5661
 41.1436  7747.13  86.7535
 41.3416  7643.85  86.5017
 41.5396  7643.9  86.3179
 41.7376  7638.03  86.537
 41.9356  7597.26  86.1609
 42.1336  7786.11  87.3727
 42.3316  7531.94  86.137
 42.5296  7520.77  85.6006
 42.7276  7681.27  86.7475
 42.9256  7540.14  85.8168
 43.1236  7514.98  85.779
 43.3216  7625.59  86.2576
 43.5196  7609.78  86.085
 43.7176  7479.87  85.7847
 43.9156  7181.6  83.9795
 44.1136  7248.27  83.9316
 44.3116  7362.32  84.5977
 44.5096  7330.26  84.7227
 44.7076  7314.53  84.5461
 44.9056  7487.21  85.4131
 45.1036  7504.58  85.1387
 45.3016  7444.84  85.2971
 45.4996  7263.11  84.1916
 45.6976  7378.61  85.0296
 45.8956  7304.06  84.4253
 46.0936  7415.07  85.0684
 46.2916  7377.8  84.8262
 46.4896  7285.15  84.3207
 46.6876  7338.67  85.3408
 46.8856  7188.06  83.8561
 47.0836  7264.26  84.4248
 47.2816  7129.02  83.5233
 47.4796  7221.59  84.1675
 47.6776  7153.05  84.7077
 47.8756  7156.02  83.9042
 48.0736  7271.43  85.0107
 48.2716  7129.95  84.0186
 48.4696  7295.53  84.5798
 48.6676  7196.02  84.5907
 48.8656  7210.43  84.4047
 49.0636  7204.33  84.3118
 49.2616  7002.63  83.1524
 49.4596  7119.49  83.4047
 49.6576  7123.24  83.6615
 49.8556  7108.84  83.5967
 50.0536  7118.98  84.1068
 50.2516  7046.43  83.7815
 50.4496  7171.35  84.1422
 50.6476  7189.6  83.9827
 50.8456  7002.58  82.9591
 51.0436  6902.56  82.8232
 51.2416  6821.49  82.0123
 51.4396  6591.44  81.0139
 51.6376  6770.19  81.9283
 51.8356  6970.41  82.6387
 52.0336  6829.64  82.4171
 52.2316  6825.58  82.7516
 52.4296  6761.69  82.2534
 52.6276  6708.89  81.8449
 52.8256  6871.13  82.381
 53.0236  6780.05  82.4897
 53.2216  6845.42  83.0679
 53.4196  6652.62  81.6517
 53.6176  6759.06  82.8072
 53.8156  6692.35  82.0648
 54.0136  6430.06  80.6089
 54.2116  6591.73  81.2517
 54.4096  6453  80.4613
 54.6076  6384.44  80.3496
 54.8056  6314.75  79.721
 55.0036  6340.43  80.2664
 55.2016  6557.98  81.1574
 55.3996  6295.13  79.5052
 55.5976  6364.65  80.1313
 55.7956  6223.44  79.0525
 55.9936  6379.6  80.1597
 56.1916  6269.44  79.4979
 56.3896  6095.1  78.375
 56.5876  6087.37  78.8761
 56.7856  6072.6  78.2709
 56.9836  6168.63  78.6642
 57.1816  6176.97  79.0913
 57.3796  5945.19  77.3822
 57.5776  6092.97  78.2549
 57.7756  6025.22  78.4694
 57.9736  6069.54  78.4397
 58.1716  5944.54  77.9656
 58.3696  5774.91  76.5228
 58.5676  5709.79  75.5852
 58.7656  5771.52  76.6514
 58.9636  5824.65  77.0385
 59.1616  5747.87  76.6496
 59.3596  5826.49  76.4392
 59.5576  5834.27  76.5517
 59.7556  5704.17  76.0998
 59.9536  5757.43  76.3555
 60.1516  5716.59  76.91
 60.1996  0.0000000E+00  0.0000000E+00