File: docs/examples/XRD/IS17_D/Data/IS17_D/17_Da_f00125.xye
# /beamlines/bl04/projects/cycle2025-II/20250340211-lsimonelli/DATA/IS17_D/17_Da_f00125.xye : mythproc.py merge -s 0.006 -l 0.5 -f /beamlines/bl04/inhouse/ff/FlatField/ff_20Nov2024rod8mm60s_17keV.raw -b True -c true -o xye /beamlines/bl04/projects/cycle2025-II/20250340211-lsimonelli/DATA/IS17_D/17_Da_00125.dat
# IsMon = [6768858, 6772979, 6774298]  IsPos = [-1.4999, -2.4884, -3.4988]
# Wave = 0.4962  CalPath /beamlines/bl04/projects/cycle2025-II/20250340211-lsimonelli/DATA/Align/Si_Pos1_25keV_f00001.cal
# Date = 2025-09-25_04:25:14 Dt = 4.8000  Bin = 0.0060  <imon> = 6772045 +/- 2317 (Min/Max) 6768858 / 6774298
# icurr 251.3830  mocoIn 1.7143E-05  mocoOut 0.8045  i15 7.08932e+06  imon 6.77204e+06  i7 5.6667  iEMpd_timer 4.8000  iEMpd_1 3.6739E-08  iEMpd_2 7.9653E-08  iEMpd_3 1.7067E-08  iEMpd_4 4.9450E-08  iEMhp_timer 4.8000  iEMhp_1 4.9107E-06  iEMhp_2 -2.5318E-08  iEMhp_3 -2.5698E-08  iEMhp_4 -2.2339E-08
#      9776
 1.7416  70735.7  266.101
 1.9396  46200  215.329
 2.1376  32755.3  181.309
 2.3356  29353.9  171.276
 2.5336  27308.5  165.783
 2.7316  25632.1  160.703
 2.9296  24676.2  157.843
 3.1276  24211.5  155.903
 3.3256  23876.8  154.472
 3.5236  25770.1  160.284
 3.7216  23453.8  154.147
 3.9196  22930.7  151.652
 4.1176  23047  151.808
 4.3156  24332.9  156.14
 4.5136  26643  162.364
 4.7116  27610.2  166.428
 4.9096  26919.9  163.772
 5.1076  26798.5  163.988
 5.3056  27058.2  164.497
 5.5036  27006.9  164.235
 5.7016  27366.2  165.297
 5.8996  27875.5  166.042
 6.0976  28644.7  169.771
 6.2956  29143.9  170.559
 6.4936  29809.6  171.678
 6.6916  30246  173.949
 6.8896  30949.9  175.822
 7.0876  32080.7  179.735
 7.2856  31949.7  178.418
 7.4836  32443.3  179.12
 7.6816  33191.2  181.712
 7.8796  34654.3  185.648
 8.0776  36148.9  190.599
 8.2756  38194.5  194.503
 8.4736  38687.9  195.565
 8.6716  38066.1  194.629
 8.8696  38413.8  196.03
 9.0676  37134.6  192.091
 9.2656  36376.3  190.806
 9.4636  36038.9  188.306
 9.6616  35415.3  187.453
 9.8596  33884  182.83
 10.0576  32160.8  178.791
 10.2556  31131.6  176.356
 10.4536  29943.8  172.557
 10.6516  29366.2  171.067
 10.8496  28534.8  168.038
 11.0476  27903.1  166.195
 11.2456  27226  164.699
 11.4436  27458.4  164.555
 11.6416  26832  163.038
 11.8396  25304.5  158.536
 12.0376  25192.6  157.81
 12.2356  24715.5  156.715
 12.4336  24607.1  155.917
 12.6316  24384.6  155.488
 12.8296  24711.2  156.15
 13.0276  25162.8  157.743
 13.2256  25140.3  158.053
 13.4236  24977.1  157.31
 13.6216  24806.5  156.791
 13.8196  24813.8  156.575
 14.0176  24570.7  156.091
 14.2156  23818.2  152.728
 14.4136  22656.5  150.335
 14.6116  22383.9  148.628
 14.8096  21911.1  147.031
 15.0076  20637.5  146.544
 15.2056  20139.1  140.548
 15.4036  19251.8  138.24
 15.6016  19253.3  137.328
 15.7996  18417.5  134.588
 15.9976  17731.4  135.04
 16.1956  17269.8  131.131
 16.3936  17006.6  129.295
 16.5916  16712.7  128.809
 16.7896  16746.4  129.001
 16.9876  16635.2  130.055
 17.1856  16336.2  127.225
 17.3836  15784.2  124.965
 17.5816  15333.4  123.656
 17.7796  15201.8  123.057
 17.9776  15145.1  123.619
 18.1756  15266  122.798
 18.3736  15017.9  122.311
 18.5716  14774.5  121.068
 18.7696  14776.9  120.645
 18.9676  14491.3  119.281
 19.1656  14291  119.007
 19.3636  14452  119.884
 19.5616  14297.1  119.411
 19.7596  14390.1  119.201
 19.9576  14922.6  121.436
 20.1556  14475.7  120.13
 20.3536  13955.3  117.328
 20.5516  13650.9  116.494
 20.7496  13479.9  115.702
 20.9476  13201.2  114.255
 21.1456  13465.9  115.714
 21.3436  13166.6  114.377
 21.5416  13172.9  114.407
 21.7396  13004.5  113.514
 21.9376  13098.9  113.692
 22.1356  13067.4  113.682
 22.3336  13082.3  114.034
 22.5316  13071.8  114.076
 22.7296  13053  113.342
 22.9276  12890.4  113.324
 23.1256  13128.3  113.822
 23.3236  12710.3  112.58
 23.5216  12892.7  113.034
 23.7196  12614.9  111.751
 23.9176  12665.6  111.737
 24.1156  12435.8  111.19
 24.3136  12088.1  110.428
 24.5116  12107.8  110.037
 24.7096  11908.7  108.947
 24.9076  11523.5  107.199
 25.1056  11356.4  106.883
 25.3036  11396.4  106.565
 25.5016  11330.1  106.291
 25.6996  11396  106.176
 25.8976  11239.4  105.885
 26.0956  11255  105.973
 26.2936  11338.3  106.009
 26.4916  11202  105.248
 26.6896  10960.7  104.408
 26.8876  10812  103.551
 27.0856  10830.5  103.684
 27.2836  10634.2  102.635
 27.4816  10575.1  102.285
 27.6796  10384.2  101.736
 27.8776  10437.4  101.86
 28.0756  10407.4  101.989
 28.2736  10238.3  100.744
 28.4716  10138.9  100.302
 28.6696  10228  100.588
 28.8676  10033.3  99.9712
 29.0656  9885.55  99.214
 29.2636  9955.17  99.36
 29.4616  9877.3  99.1375
 29.6596  9882.89  98.7289
 29.8576  9666.45  98.3285
 30.0556  9748.85  98.618
 30.2536  9753.04  98.4374
 30.4516  9685.25  97.7584
 30.6496  9728.26  97.7011
 30.8476  9602.22  97.5117
 31.0456  9509.38  97.0033
 31.2436  9423.47  95.8316
 31.4416  9386.29  95.8202
 31.6396  9366.75  95.7682
 31.8376  9444.55  95.7019
 32.0356  9308.83  95.5774
 32.2336  9243.45  94.638
 32.4316  9195.35  94.7875
 32.6296  9188.07  94.5823
 32.8276  9242.82  94.6372
 33.0256  9093.2  93.9481
 33.2236  9130.12  94.2896
 33.4216  9252.2  94.5981
 33.6196  9072.92  93.9729
 33.8176  8873.08  93.0958
 34.0156  9008.98  93.4195
 34.2136  8925.64  93.0297
 34.4116  8875.68  92.9137
 34.6096  8780.78  92.3
 34.8076  8660.82  92.0655
 35.0056  8629.11  91.5966
 35.2036  8646.06  91.8924
 35.4016  8616.59  91.6594
 35.5996  8579.54  91.4994
 35.7976  8556.51  91.6519
 35.9956  8606.52  91.5652
 36.1936  8550.88  91.1368
 36.3916  8460.86  90.8318
 36.5896  8384.47  91.4001
 36.7876  8373.39  90.7297
 36.9856  8277.22  90.2303
 37.1836  8334.71  89.6436
 37.3816  8381.58  90.262
 37.5796  8378.49  92.0046
 37.7776  8192.06  89.3505
 37.9756  8205.36  89.3056
 38.1736  8217.56  89.5618
 38.3716  8280.41  90.1815
 38.5696  8156.85  89.8866
 38.7676  7964.39  88.3266
 38.9656  7996.96  88.1416
 39.1636  8088.48  88.9112
 39.3616  8037.06  88.5549
 39.5596  8037.98  89.4004
 39.7576  8009.61  88.6286
 39.9556  8031.13  88.3725
 40.1536  8240.12  89.7325
 40.3516  8139.42  89.1836
 40.5496  8133.07  89.4214
 40.7476  8223.24  89.9252
 40.9456  8220.2  89.6502
 41.1436  8208  89.3031
 41.3416  8075.02  88.9085
 41.5396  8090.69  88.8011
 41.7376  8099.33  89.115
 41.9356  8001.44  88.4355
 42.1336  8022.01  88.7025
 42.3316  7967.22  88.5912
 42.5296  8085.22  88.7574
 42.7276  7952.82  88.272
 42.9256  8008.57  88.4489
 43.1236  7929.61  88.1201
 43.3216  7839.47  87.3671
 43.5196  7870.54  87.6068
 43.7176  7970.15  88.5567
 43.9156  7673.61  86.7974
 44.1136  7766.4  86.8618
 44.3116  7756.13  86.8242
 44.5096  7687.1  86.7475
 44.7076  7672.59  86.5937
 44.9056  7591.43  86.0137
 45.1036  7518.71  85.2291
 45.3016  7458.35  85.3842
 45.4996  7468.83  85.3845
 45.6976  7386.01  85.0768
 45.8956  7553.4  85.861
 46.0936  7544.02  85.8145
 46.2916  7408.25  85.0173
 46.4896  7326.98  84.5767
 46.6876  7461.72  86.0756
 46.8856  7308.76  84.4353
 47.0836  7345.48  84.9005
 47.2816  7212.18  84.0031
 47.4796  7229.13  84.2093
 47.6776  7154.43  84.7219
 47.8756  7182.41  84.0579
 48.0736  7121.54  84.1602
 48.2716  6997.51  83.2381
 48.4696  7252.08  84.3364
 48.6676  7089.25  83.9646
 48.8656  7179.11  84.212
 49.0636  7142.87  83.9442
 49.2616  6978.56  83.0098
 49.4596  6892.95  82.08
 49.6576  6914.5  82.4266
 49.8556  6966.14  82.7546
 50.0536  6937.91  83.0271
 50.2516  6903.51  82.9552
 50.4496  6855.1  82.3239
 50.6476  6884.74  82.1845
 50.8456  6911.64  82.4297
 51.0436  6706.88  81.6329
 51.2416  6720.28  81.3845
 51.4396  6645.77  81.3319
 51.6376  6646.94  81.1675
 51.8356  6735.6  81.3396
 52.0336  6544.5  80.6863
 52.2316  6654.37  81.7155
 52.4296  6521.15  80.5787
 52.6276  6501.02  80.5706
 52.8256  6646.99  81.035
 53.0236  6430  80.3384
 53.2216  6476.26  80.6624
 53.4196  6402.4  80.125
 53.6176  6346.31  80.2477
 53.8156  6388.86  80.18
 54.0136  6397.04  80.4051
 54.2116  6445.47  80.3764
 54.4096  6488.83  80.6941
 54.6076  6345.1  80.1364
 54.8056  6342.25  79.911
 55.0036  6244.23  79.6818
 55.2016  6264.13  79.3602
 55.3996  6338.39  79.793
 55.5976  6347.49  80.0358
 55.7956  6340.1  79.81
 55.9936  6240.78  79.321
 56.1916  6274.73  79.5492
 56.3896  6251.45  79.3915
 56.5876  6224.98  79.7769
 56.7856  6232.68  79.3082
 56.9836  6257.82  79.2583
 57.1816  6257.45  79.6326
 57.3796  6271.79  79.5169
 57.5776  6225.74  79.1558
 57.7756  6103.16  79.0075
 57.9736  6181.01  79.1789
 58.1716  6226.07  79.7095
 58.3696  6148.02  78.9563
 58.5676  6256.31  79.1214
 58.7656  6172.12  79.2523
 58.9636  6219.88  79.5982
 59.1616  6310.79  80.3075
 59.3596  6374.11  79.9467
 59.5576  6239.25  79.157
 59.7556  6127.49  78.8661
 59.9536  6273.63  79.698
 60.1516  6247.83  80.3971
 60.1996  0.0000000E+00  0.0000000E+00