File: docs/examples/XRD/IS17_D/Data/IS17_D/17_Da_f00145.xye
# /beamlines/bl04/projects/cycle2025-II/20250340211-lsimonelli/DATA/IS17_D/17_Da_f00145.xye : mythproc.py merge -s 0.006 -l 0.5 -f /beamlines/bl04/inhouse/ff/FlatField/ff_20Nov2024rod8mm60s_17keV.raw -b True -c true -o xye /beamlines/bl04/projects/cycle2025-II/20250340211-lsimonelli/DATA/IS17_D/17_Da_00145.dat
# IsMon = [6784329, 6787997, 6791467]  IsPos = [-1.4999, -2.4884, -3.4988]
# Wave = 0.4962  CalPath /beamlines/bl04/projects/cycle2025-II/20250340211-lsimonelli/DATA/Align/Si_Pos1_25keV_f00001.cal
# Date = 2025-09-25_09:58:56 Dt = 4.8000  Bin = 0.0060  <imon> = 6787931 +/- 2914 (Min/Max) 6784329 / 6791467
# icurr 252.8055  mocoIn 1.7250E-05  mocoOut 0.8091  i15 7.10628e+06  imon 6.78793e+06  i7 7.0000  iEMpd_timer 4.8000  iEMpd_1 3.5031E-08  iEMpd_2 7.9304E-08  iEMpd_3 1.8265E-08  iEMpd_4 4.8955E-08  iEMhp_timer 4.8000  iEMhp_1 4.9377E-06  iEMhp_2 -2.5486E-08  iEMhp_3 -2.4146E-08  iEMhp_4 -2.1886E-08
#      9776
 1.7416  70596  265.846
 1.9396  46645.4  216.361
 2.1376  33198.2  182.536
 2.3356  29389.8  171.386
 2.5336  27349.9  165.913
 2.7316  25735.5  161.034
 2.9296  24531.5  157.386
 3.1276  23833.9  154.686
 3.3256  23838  154.357
 3.5236  25637.9  159.88
 3.7216  23587.7  154.585
 3.9196  23053.4  152.055
 4.1176  22973.8  151.569
 4.3156  24321  156.096
 4.5136  26702.5  162.548
 4.7116  27728.7  166.783
 4.9096  26925.3  163.785
 5.1076  26739  163.808
 5.3056  27156.6  164.793
 5.5036  27046.7  164.358
 5.7016  27487.1  165.662
 5.8996  28254.1  167.163
 6.0976  28886.8  170.487
 6.2956  29376.3  171.237
 6.4936  30040.9  172.35
 6.6916  30430.8  174.479
 6.8896  31045.2  176.091
 7.0876  31982.4  179.459
 7.2856  32085.3  178.798
 7.4836  32403.5  179.01
 7.6816  33386.5  182.246
 7.8796  34709.6  185.797
 8.0776  36543.8  191.633
 8.2756  38232.7  194.587
 8.4736  38786.1  195.806
 8.6716  38253  195.107
 8.8696  38109.2  195.24
 9.0676  37470.5  192.949
 9.2656  36052.1  189.952
 9.4636  35958.4  188.082
 9.6616  35220.4  186.924
 9.8596  33834.2  182.704
 10.0576  31965.8  178.244
 10.2556  30824.3  175.484
 10.4536  30382.1  173.823
 10.6516  29696.7  172.04
 10.8496  28632.2  168.323
 11.0476  27977.8  166.413
 11.2456  27364.6  165.117
 11.4436  27669.8  165.187
 11.6416  26893.7  163.221
 11.8396  25218  158.267
 12.0376  25304.7  158.158
 12.2356  24810.2  157.017
 12.4336  24683  156.158
 12.6316  24234.1  155.01
 12.8296  24666.7  156.011
 13.0276  25374.1  158.407
 13.2256  25167.3  158.139
 13.4236  24956.3  157.243
 13.6216  24972.6  157.318
 13.8196  24941.3  156.973
 14.0176  24595.3  156.162
 14.2156  23926.3  153.069
 14.4136  22858.8  150.996
 14.6116  22758.3  149.866
 14.8096  21867.5  146.878
 15.0076  20626.5  146.492
 15.2056  20433.5  141.571
 15.4036  19368  138.67
 15.6016  18947.4  136.228
 15.7996  18703.3  135.624
 15.9976  17746.5  135.083
 16.1956  17324.7  131.334
 16.3936  17203.7  130.037
 16.5916  16752  128.96
 16.7896  16747.8  128.999
 16.9876  16691.4  130.275
 17.1856  16271.4  126.982
 17.3836  16023.7  125.917
 17.5816  15513.3  124.387
 17.7796  15403.1  123.875
 17.9776  15180.4  123.759
 18.1756  15607.2  124.163
 18.3736  15429.3  123.98
 18.5716  14921  121.662
 18.7696  14972.2  121.436
 18.9676  14565.9  119.587
 19.1656  14524.8  119.977
 19.3636  14439.8  119.835
 19.5616  14306.7  119.451
 19.7596  14474.4  119.556
 19.9576  15046  121.94
 20.1556  14469.8  120.106
 20.3536  13979.7  117.429
 20.5516  13825.6  117.23
 20.7496  13503.9  115.803
 20.9476  13284.7  114.617
 21.1456  13635.8  116.439
 21.3436  13387.9  115.334
 21.5416  13077.7  113.99
 21.7396  13041.1  113.679
 21.9376  13012.4  113.312
 22.1356  13103  113.831
 22.3336  13029.9  113.808
 22.5316  13098.8  114.18
 22.7296  12989.9  113.063
 22.9276  12967.6  113.656
 23.1256  13115.1  113.767
 23.3236  12980.8  113.765
 23.5216  12868.4  112.919
 23.7196  12703.3  112.143
 23.9176  12601.3  111.452
 24.1156  12559.5  111.738
 24.3136  12170  110.805
 24.5116  12055.2  109.806
 24.7096  11929.8  109.046
 24.9076  11589.9  107.51
 25.1056  11465.6  107.4
 25.3036  11387.8  106.523
 25.5016  11346.6  106.366
 25.6996  11202.9  105.265
 25.8976  11249.4  105.939
 26.0956  11201.3  105.715
 26.2936  11278.9  105.728
 26.4916  11249.3  105.468
 26.6896  10897.5  104.104
 26.8876  10878.9  103.871
 27.0856  10882.8  103.934
 27.2836  10636.9  102.65
 27.4816  10573.4  102.278
 27.6796  10502.6  102.311
 27.8776  10486.1  102.093
 28.0756  10467  102.281
 28.2736  10390  101.487
 28.4716  10112.9  100.171
 28.6696  10239  100.639
 28.8676  10109.1  100.351
 29.0656  9968.46  99.6306
 29.2636  9971.42  99.4404
 29.4616  9861.06  99.0569
 29.6596  9959.6  99.1099
 29.8576  9719.28  98.5974
 30.0556  9777.47  98.7663
 30.2536  9788.72  98.6165
 30.4516  9704.12  97.8515
 30.6496  9792.2  98.0175
 30.8476  9513.03  97.0528
 31.0456  9479.25  96.8479
 31.2436  9539.88  96.4216
 31.4416  9426.69  96.0281
 31.6396  9540.3  96.6558
 31.8376  9493.98  95.9596
 32.0356  9266.38  95.3734
 32.2336  9318.93  95.0229
 32.4316  9174.01  94.679
 32.6296  9226.43  94.7841
 32.8276  9207.83  94.4583
 33.0256  9063.72  93.7944
 33.2236  9183.58  94.5681
 33.4216  9229.35  94.4758
 33.6196  9160.17  94.4248
 33.8176  9107.91  94.3199
 34.0156  8855.91  92.6253
 34.2136  9030.42  93.5724
 34.4116  8903.99  93.06
 34.6096  8816.21  92.474
 34.8076  8704.01  92.3073
 35.0056  8839.37  92.7049
 35.2036  8706.71  92.2189
 35.4016  8736.26  92.2907
 35.5996  8661.07  91.9349
 35.7976  8587.78  91.8233
 35.9956  8573.44  91.3834
 36.1936  8489.17  90.8056
 36.3916  8483.51  90.9538
 36.5896  8448.01  91.7452
 36.7876  8449.17  91.139
 36.9856  8325.01  90.491
 37.1836  8434.08  90.1752
 37.3816  8512.04  90.9527
 37.5796  8309.16  91.6178
 37.7776  8223.79  89.5172
 37.9756  8189.82  89.2115
 38.1736  8360.47  90.3346
 38.3716  8205.48  89.7689
 38.5696  8160.38  89.9042
 38.7676  8028.88  88.6882
 38.9656  8087.3  88.6423
 39.1636  8025.32  88.5753
 39.3616  8102.38  88.9216
 39.5596  8085.82  89.6773
 39.7576  7939.89  88.2295
 39.9556  8145.06  89.0104
 40.1536  8179.84  89.4018
 40.3516  8228.31  89.6765
 40.5496  8097.67  89.2257
 40.7476  8106.88  89.2817
 40.9456  8264.18  89.8838
 41.1436  8045.09  88.4141
 41.3416  8146  89.2951
 41.5396  7961.57  88.0892
 41.7376  8066.88  88.9423
 41.9356  7955.14  88.1821
 42.1336  8018.64  88.6872
 42.3316  8022.04  88.8959
 42.5296  8013.69  88.3628
 42.7276  7945.41  88.2287
 42.9256  7935.69  88.0475
 43.1236  7921.89  88.0764
 43.3216  8003.31  88.2777
 43.5196  7830.58  87.382
 43.7176  7855.93  87.9191
 43.9156  7776.03  87.373
 44.1136  7672.44  86.3395
 44.3116  7702.3  86.5187
 44.5096  7653.15  86.5532
 44.7076  7633.46  86.3731
 44.9056  7697.46  86.6117
 45.1036  7528.97  85.2798
 45.3016  7592.32  86.1456
 45.4996  7447.38  85.2588
 45.6976  7352.39  84.8828
 45.8956  7558.29  85.8938
 46.0936  7434.91  85.1983
 46.2916  7424.31  85.1133
 46.4896  7539.79  85.8082
 46.6876  7390.91  85.6682
 46.8856  7296.45  84.3584
 47.0836  7350.34  84.9372
 47.2816  7127.34  83.5101
 47.4796  7343.74  84.8729
 47.6776  7245.38  85.2567
 47.8756  7197.48  84.149
 48.0736  7217.36  84.7199
 48.2716  7062.16  83.6185
 48.4696  7163.65  83.8153
 48.6676  7074.9  83.8651
 48.8656  7107.1  83.7869
 49.0636  7167.49  84.0977
 49.2616  6919.64  82.6613
 49.4596  7053.69  83.0356
 49.6576  7046.62  83.2146
 49.8556  7068.78  83.3623
 50.0536  6989.83  83.3443
 50.2516  6914.03  83.0228
 50.4496  6925.32  82.7404
 50.6476  6896.63  82.2546
 50.8456  6829.4  81.9346
 51.0436  6636.43  81.2028
 51.2416  6713.27  81.3427
 51.4396  6542.49  80.7008
 51.6376  6793.39  82.059
 51.8356  6622.7  80.6554
 52.0336  6530.98  80.6006
 52.2316  6634.64  81.5907
 52.4296  6659.91  81.42
 52.6276  6543.6  80.8281
 52.8256  6683.36  81.2322
 53.0236  6448  80.4535
 53.2216  6405.38  80.2206
 53.4196  6333.17  79.6944
 53.6176  6425.45  80.7503
 53.8156  6383.19  80.1513
 54.0136  6415.86  80.5231
 54.2116  6401.45  80.1015
 54.4096  6412.24  80.2162
 54.6076  6367.6  80.2868
 54.8056  6295.53  79.6166
 55.0036  6241.12  79.6654
 55.2016  6329.4  79.7718
 55.3996  6357.41  79.9133
 55.5976  6301.64  79.7552
 55.7956  6391.93  80.1313
 55.9936  6235.88  79.285
 56.1916  6276.18  79.5644
 56.3896  6321.19  79.8339
 56.5876  6200.38  79.62
 56.7856  6288.39  79.6535
 56.9836  6159.48  78.6279
 57.1816  6253.73  79.6111
 57.3796  6288.22  79.6238
 57.5776  6256.07  79.3419
 57.7756  6132.75  79.1918
 57.9736  6104.17  78.6824
 58.1716  6241.86  79.8117
 58.3696  6186.71  79.2048
 58.5676  6274.06  79.2261
 58.7656  6234.52  79.6562
 58.9636  6245.42  79.7582
 59.1616  6225.46  79.7601
 59.3596  6362.57  79.8695
 59.5576  6400.24  80.1642
 59.7556  6288.75  79.8896
 59.9536  6392.85  80.4441
 60.1516  6137.52  79.6767
 60.1996  0.0000000E+00  0.0000000E+00