File: docs/examples/XRD/IS17_D/Data/IS17_D/17_Db_f00137.xye
# /beamlines/bl04/projects/cycle2025-II/20250340211-lsimonelli/DATA/IS17_D/17_Db_f00137.xye : mythproc.py merge -s 0.006 -l 0.5 -f /beamlines/bl04/inhouse/ff/FlatField/ff_20Nov2024rod8mm60s_17keV.raw -b True -c true -o xye /beamlines/bl04/projects/cycle2025-II/20250340211-lsimonelli/DATA/IS17_D/17_Db_00137.dat
# IsMon = [6742776, 6740436, 6741333]  IsPos = [-1.5000, -2.4884, -3.4988]
# Wave = 0.4962  CalPath /beamlines/bl04/projects/cycle2025-II/20250340211-lsimonelli/DATA/Align/Si_Pos1_25keV_f00001.cal
# Date = 2025-09-25_07:54:41 Dt = 4.8000  Bin = 0.0060  <imon> = 6741515 +/- 964 (Min/Max) 6740436 / 6742776
# icurr 249.0586  mocoIn 1.6997E-05  mocoOut 0.7977  i15 7.06843e+06  imon 6.74152e+06  i7 6.0000  iEMpd_timer 4.8000  iEMpd_1 3.5361E-08  iEMpd_2 7.9744E-08  iEMpd_3 1.7662E-08  iEMpd_4 4.8887E-08  iEMhp_timer 4.8000  iEMhp_1 4.8679E-06  iEMhp_2 -2.6095E-08  iEMhp_3 -2.4472E-08  iEMhp_4 -2.0871E-08
#      9776
 1.7416  68531.8  261.836
 1.9396  47853.1  219.077
 2.1376  34890.7  187.064
 2.3356  31393.5  177.069
 2.5336  29977  173.637
 2.7316  26502.8  163.394
 2.9296  25417.2  160.168
 3.1276  24818.5  157.815
 3.3256  24161.4  155.385
 3.5236  25564.2  159.633
 3.7216  23542.7  154.435
 3.9196  23216.2  152.569
 4.1176  23024.8  151.724
 4.3156  23954.7  154.928
 4.5136  26512.1  161.966
 4.7116  27397  165.776
 4.9096  26784  163.351
 5.1076  26314  162.477
 5.3056  26398.8  162.468
 5.5036  26131.1  161.561
 5.7016  26852.7  163.737
 5.8996  27241.8  164.152
 6.0976  28147.3  168.264
 6.2956  28278.8  168.005
 6.4936  28889.7  169.013
 6.6916  29295.7  171.175
 6.8896  30385.7  174.182
 7.0876  31327.1  177.514
 7.2856  30908.8  175.474
 7.4836  31539  176.595
 7.6816  32268.2  179.138
 7.8796  33082.7  181.413
 8.0776  35967.7  190.152
 8.2756  36838  191.052
 8.4736  37498.3  192.565
 8.6716  36460.7  190.508
 8.8696  37754.1  194.343
 9.0676  36990.5  191.685
 9.2656  35446  188.339
 9.4636  34651.3  184.678
 9.6616  33742.4  182.973
 9.8596  33266.7  181.119
 10.0576  31018.7  175.56
 10.2556  30354.5  174.122
 10.4536  32065.3  178.545
 10.6516  33674.5  183.17
 10.8496  27737.8  165.676
 11.0476  27202.1  164.089
 11.2456  28748.2  169.252
 11.4436  27264.2  163.979
 11.6416  25946.1  160.294
 11.8396  24821.8  156.99
 12.0376  24241.2  154.792
 12.2356  24762.4  156.865
 12.4336  24334.8  155.045
 12.6316  23831.7  153.698
 12.8296  23858.1  153.403
 13.0276  24163.1  154.59
 13.2256  24089.3  154.714
 13.4236  24292.4  155.136
 13.6216  24573.3  156.018
 13.8196  27063.5  163.218
 14.0176  23686.4  153.265
 14.2156  23406.3  151.387
 14.4136  21988.3  148.099
 14.6116  21811.6  146.706
 14.8096  20946.3  143.747
 15.0076  20136.6  144.818
 15.2056  19282  137.546
 15.4036  18363.1  135.053
 15.6016  17803.7  132.079
 15.7996  17464.5  131.078
 15.9976  17170  132.842
 16.1956  16734.5  129.058
 16.3936  16484.5  127.272
 16.5916  16491.9  127.947
 16.7896  16376  127.552
 16.9876  16127.5  128.04
 17.1856  15984.6  125.846
 17.3836  15340.8  123.191
 17.5816  14946.7  122.076
 17.7796  15130.1  122.74
 17.9776  14928.5  122.711
 18.1756  15683.4  124.488
 18.3736  15309.9  123.486
 18.5716  14523.8  120.024
 18.7696  14451.8  119.295
 18.9676  14188.2  117.989
 19.1656  13914.7  117.446
 19.3636  13905.3  117.603
 19.5616  13835.9  117.474
 19.7596  14148.5  118.188
 19.9576  14586.3  120.055
 20.1556  13505.3  116.032
 20.3536  13593.7  115.804
 20.5516  13112.2  114.157
 20.7496  13167.2  114.248
 20.9476  13263.1  114.514
 21.1456  13168.8  114.432
 21.3436  12780.1  112.686
 21.5416  12739.2  112.512
 21.7396  12600.9  111.748
 21.9376  12540  111.251
 22.1356  12882.4  113.033
 22.3336  12412.1  111.092
 22.5316  12265.5  110.523
 22.7296  12373.5  110.378
 22.9276  12189.1  110.215
 23.1256  12474.9  110.981
 23.3236  12606.8  112.124
 23.5216  12591.1  111.69
 23.7196  12516.2  111.525
 23.9176  12382.6  110.464
 24.1156  12195.9  110.087
 24.3136  11905.1  109.569
 24.5116  11890.8  109.016
 24.7096  11717  108.048
 24.9076  11565.7  107.371
 25.1056  11277.7  106.487
 25.3036  10929.1  104.355
 25.5016  11073.5  105.068
 25.6996  11020.2  104.411
 25.8976  11235.9  105.859
 26.0956  10897.8  104.265
 26.2936  10944.6  104.154
 26.4916  11062.9  104.569
 26.6896  10798.2  103.615
 26.8876  10666.8  102.835
 27.0856  10456.4  101.876
 27.2836  10311  101.065
 27.4816  10435.4  101.599
 27.6796  10195.3  100.789
 27.8776  10559.6  102.428
 28.0756  10053.2  100.244
 28.2736  10052.3  99.821
 28.4716  9852.8  98.8767
 28.6696  9915.18  99.034
 28.8676  9802.74  98.819
 29.0656  9683.5  98.1915
 29.2636  9699.64  98.066
 29.4616  9344.02  96.4411
 29.6596  9349.98  96.0441
 29.8576  9239.41  96.1491
 30.0556  9390.69  96.8096
 30.2536  9495.32  97.1449
 30.4516  9480.14  96.7055
 30.6496  9622.66  97.1523
 30.8476  9511.34  97.0294
 31.0456  9445.25  96.6515
 31.2436  9415.96  95.7738
 31.4416  9294.62  95.3379
 31.6396  9691.35  97.4011
 31.8376  9490.55  95.9061
 32.0356  9276.17  95.3856
 32.2336  9252.2  94.6625
 32.4316  9014.3  93.843
 32.6296  8964.52  93.4194
 32.8276  8947.46  93.1246
 33.0256  8820.67  92.5229
 33.2236  8912.69  93.1458
 33.4216  8813.41  92.3171
 33.6196  8841.97  92.7595
 33.8176  8928.27  93.3782
 34.0156  8654.34  91.5621
 34.2136  8803.59  92.3709
 34.4116  8564.61  91.2818
 34.6096  8782.96  92.3103
 34.8076  8557.47  91.5316
 35.0056  8497.78  90.8854
 35.2036  8681.45  92.0856
 35.4016  8377.28  90.3795
 35.5996  8354.84  90.2909
 35.7976  8365.16  90.6148
 35.9956  8624.81  91.6507
 36.1936  8519.86  90.9507
 36.3916  8317.51  90.0581
 36.5896  8328.71  91.1065
 36.7876  8163.24  89.5962
 36.9856  8007.49  88.7628
 37.1836  8077.59  88.2643
 37.3816  8030.43  88.3674
 37.5796  8145.52  90.7167
 37.7776  8164.43  89.1804
 37.9756  8132.8  88.8866
 38.1736  8301.18  90.005
 38.3716  8019.44  88.7232
 38.5696  7919.22  88.5578
 38.7676  7858.93  87.7333
 38.9656  7955.1  87.8839
 39.1636  8045.47  88.6589
 39.3616  8037.07  88.5582
 39.5596  7820.8  88.1818
 39.7576  7825.28  87.6039
 39.9556  7858.67  87.4324
 40.1536  8051.36  88.6941
 40.3516  7921.25  87.98
 40.5496  7984.94  88.598
 40.7476  7945.6  88.3863
 40.9456  8047.56  88.6982
 41.1436  7961.93  87.9386
 41.3416  7794.06  87.35
 41.5396  7891.64  87.7006
 41.7376  7907.16  88.0352
 41.9356  7826.72  87.4581
 42.1336  7999.06  88.5509
 42.3316  7808.75  87.7051
 42.5296  7888.04  87.6629
 42.7276  7796.87  87.3979
 42.9256  7755.54  87.0404
 43.1236  7774.3  87.242
 43.3216  7814.64  87.2119
 43.5196  7710.79  86.7068
 43.7176  7687.36  86.9673
 43.9156  7574.32  86.2467
 44.1136  7566.62  85.7574
 44.3116  7635.02  86.1505
 44.5096  7540.02  85.9283
 44.7076  7500.5  85.632
 44.9056  7793.38  87.1454
 45.1036  7562.39  85.4654
 45.3016  7538.03  85.8326
 45.4996  7417.04  85.0802
 45.6976  7499.82  85.7346
 45.8956  7476.64  85.4159
 46.0936  7631.52  86.05
 46.2916  7503.42  85.5301
 46.4896  7516.5  85.6524
 46.6876  7516.24  86.3724
 46.8856  7480.85  85.4284
 47.0836  7473.35  85.6317
 47.2816  7325.35  84.6633
 47.4796  7446.35  85.4644
 47.6776  7346.26  85.8506
 47.8756  7329.93  84.9113
 48.0736  7354.9  85.5136
 48.2716  7334.06  85.2179
 48.4696  7559.71  86.0975
 48.6676  7503.77  86.3798
 48.8656  7448.39  85.7896
 49.0636  7517.58  86.116
 49.2616  7236.45  84.5409
 49.4596  7395.13  85.0037
 49.6576  7295.6  84.6693
 49.8556  7250.14  84.4229
 50.0536  7311.99  85.2419
 50.2516  7298.76  85.2957
 50.4496  7261.55  84.7309
 50.6476  7220.3  84.1653
 50.8456  7236.99  84.3446
 51.0436  7218  84.6952
 51.2416  7010.32  83.1394
 51.4396  7012.78  83.5651
 51.6376  7041.46  83.555
 51.8356  7025.83  83.0703
 52.0336  6929.28  83.0166
 52.2316  6963.58  83.5835
 52.4296  6947.49  83.1856
 52.6276  6928.81  83.1814
 52.8256  6967.05  82.9609
 53.0236  7078.65  84.2776
 53.2216  6997.53  83.8174
 53.4196  7070.18  84.1581
 53.6176  6932.88  83.8615
 53.8156  6887.63  83.2544
 54.0136  6618.46  81.7745
 54.2116  6828.03  82.6901
 54.4096  6603.82  81.3917
 54.6076  6600.53  81.7041
 54.8056  6484.94  80.7618
 55.0036  6595.83  81.7442
 55.2016  6564.21  81.1088
 55.3996  6407.84  80.217
 55.5976  6541.64  81.2344
 55.7956  6523.44  80.9315
 55.9936  6504.29  80.9419
 56.1916  6367.75  80.1252
 56.3896  6225.9  79.2141
 56.5876  6386.48  80.7764
 56.7856  6320.58  79.8589
 56.9836  6411.29  80.1948
 57.1816  6449.19  80.7983
 57.3796  6255.46  79.3869
 57.5776  6281.41  79.4533
 57.7756  6117.18  79.0601
 57.9736  6158.44  79.0148
 58.1716  6128.7  79.0846
 58.3696  5966.86  77.7959
 58.5676  6027.29  77.6607
 58.7656  6023.79  78.315
 58.9636  5983.77  78.0866
 59.1616  6009.68  78.3848
 59.3596  5942.28  77.2053
 59.5576  6002.58  77.6552
 59.7556  5895.3  77.3713
 59.9536  6009.29  78.0149
 60.1516  5879.01  78.0021
 60.1996  0.0000000E+00  0.0000000E+00