File: docs/examples/XRD/IS17_D/Data/IS17_D/17_Db_f00076.xye
# /beamlines/bl04/projects/cycle2025-II/20250340211-lsimonelli/DATA/IS17_D/17_Db_f00076.xye : mythproc.py merge -s 0.006 -l 0.5 -f /beamlines/bl04/inhouse/ff/FlatField/ff_20Nov2024rod8mm60s_17keV.raw -b True -c true -o xye /beamlines/bl04/projects/cycle2025-II/20250340211-lsimonelli/DATA/IS17_D/17_Db_00076.dat
# IsMon = [6748895, 6753716, 6754094]  IsPos = [-1.4999, -2.4884, -3.4988]
# Wave = 0.4962  CalPath /beamlines/bl04/projects/cycle2025-II/20250340211-lsimonelli/DATA/Align/Si_Pos1_25keV_f00001.cal
# Date = 2025-09-24_14:53:05 Dt = 4.8000  Bin = 0.0060  <imon> = 6752235 +/- 2367 (Min/Max) 6748895 / 6754094
# icurr 249.5418  mocoIn 1.7015E-05  mocoOut 0.7986  i15 7.07777e+06  imon 6.75224e+06  i7 3.0000  iEMpd_timer 4.8000  iEMpd_1 3.4302E-08  iEMpd_2 7.8343E-08  iEMpd_3 1.5885E-08  iEMpd_4 4.6316E-08  iEMhp_timer 4.8000  iEMhp_1 4.8734E-06  iEMhp_2 -2.5932E-08  iEMhp_3 -2.5266E-08  iEMhp_4 -2.1468E-08
#      9776
 1.7416  68290.6  261.464
 1.9396  46708.3  216.516
 2.1376  34099.1  184.991
 2.3356  30679.7  175.104
 2.5336  30291.8  174.606
 2.7316  26495.1  163.385
 2.9296  25015.5  158.902
 3.1276  24440.5  156.622
 3.3256  23608.1  153.59
 3.5236  25180.8  158.432
 3.7216  23226.3  153.391
 3.9196  23129.2  152.279
 4.1176  22667.5  150.548
 4.3156  23778.8  154.353
 4.5136  26623.3  162.296
 4.7116  27240.4  165.303
 4.9096  26258.2  161.739
 5.1076  25994.4  161.506
 5.3056  26074.3  161.461
 5.5036  25896.1  160.826
 5.7016  26223.1  161.802
 5.8996  26837.6  162.93
 6.0976  27600.3  166.637
 6.2956  27670  166.18
 6.4936  28584.7  168.117
 6.6916  28810.2  169.758
 6.8896  30032.2  173.169
 7.0876  30649  175.674
 7.2856  30403.3  174.035
 7.4836  31473.4  176.412
 7.6816  31861  178.015
 7.8796  32465.1  179.681
 8.0776  36698.3  192.041
 8.2756  36676.8  190.601
 8.4736  36319.2  189.481
 8.6716  36107.8  189.549
 8.8696  37505.8  193.722
 9.0676  36711.6  190.979
 9.2656  34750.5  186.501
 9.4636  33809.9  182.423
 9.6616  33023.4  181.01
 9.8596  32504.2  179.047
 10.0576  30262  173.412
 10.2556  29397.2  171.366
 10.4536  33660.7  182.942
 10.6516  35013.2  186.814
 10.8496  26922  163.227
 11.0476  26927.2  163.256
 11.2456  29819.4  172.369
 11.4436  26298.1  161.044
 11.6416  25479.2  158.853
 11.8396  24521.9  156.05
 12.0376  23619.2  152.793
 12.2356  25351  158.71
 12.4336  24178.5  154.548
 12.6316  23346.2  152.143
 12.8296  23663  152.78
 13.0276  23818.7  153.474
 13.2256  23858.2  153.965
 13.4236  23972.6  154.112
 13.6216  24010.6  154.235
 13.8196  27202.1  163.636
 14.0176  23307.6  152.026
 14.2156  22917.8  149.798
 14.4136  21551.3  146.615
 14.6116  21521.4  145.723
 14.8096  20579.5  142.475
 15.0076  20114  144.74
 15.2056  18922.7  136.233
 15.4036  18224.9  134.513
 15.6016  17839.7  132.188
 15.7996  17418.6  130.889
 15.9976  16760.6  131.251
 16.1956  16646.9  128.708
 16.3936  16317  126.637
 16.5916  16311.8  127.252
 16.7896  15987  126.032
 16.9876  15983.1  127.458
 17.1856  15791.3  125.082
 17.3836  15008.2  121.859
 17.5816  14810.6  121.528
 17.7796  14993.6  122.209
 17.9776  14897.6  122.59
 18.1756  15561.6  123.996
 18.3736  16041.7  126.394
 18.5716  14288  119.052
 18.7696  14306  118.698
 18.9676  13998.2  117.221
 19.1656  13717.2  116.605
 19.3636  13764.2  116.992
 19.5616  13809.5  117.357
 19.7596  13865.1  117.001
 19.9576  14296.2  118.856
 20.1556  13361  115.403
 20.3536  13325.8  114.651
 20.5516  12956.4  113.483
 20.7496  12851  112.961
 20.9476  13249.4  114.46
 21.1456  13176.5  114.458
 21.3436  12687.9  112.278
 21.5416  12645.3  112.101
 21.7396  12432.1  110.997
 21.9376  12442.3  110.812
 22.1356  12822.5  112.615
 22.3336  12345.3  110.775
 22.5316  12406.2  111.139
 22.7296  12042.8  108.87
 22.9276  11982.3  109.259
 23.1256  12624.5  111.629
 23.3236  12391.4  111.173
 23.5216  12361.5  110.679
 23.7196  12152.6  109.686
 23.9176  12338.6  110.285
 24.1156  11972.9  109.095
 24.3136  12009.6  110.059
 24.5116  11882.2  108.995
 24.7096  11568.1  107.362
 24.9076  11521.2  107.173
 25.1056  11260.2  106.412
 25.3036  10945.2  104.431
 25.5016  10992.6  104.691
 25.6996  10940.5  104.027
 25.8976  11236  105.863
 26.0956  10848.4  104.025
 26.2936  10718.2  103.067
 26.4916  10958.4  104.065
 26.6896  10664.1  102.973
 26.8876  10575.8  102.407
 27.0856  10422.8  101.716
 27.2836  10142.2  100.232
 27.4816  10403.2  101.443
 27.6796  10133.3  100.477
 27.8776  10544.7  102.366
 28.0756  10046.5  100.199
 28.2736  9947.62  99.2965
 28.4716  9799.06  98.6025
 28.6696  9907.6  98.9939
 28.8676  9714.21  98.3739
 29.0656  9595.01  97.7438
 29.2636  9558.56  97.3518
 29.4616  9354.94  96.4818
 29.6596  9378.62  96.1765
 29.8576  9082.83  95.314
 30.0556  9287.05  96.252
 30.2536  9238.01  95.8033
 30.4516  9428.2  96.4334
 30.6496  9421.84  96.1202
 30.8476  9439.33  96.6677
 31.0456  9446.04  96.6786
 31.2436  9324.16  95.3166
 31.4416  9197.07  94.847
 31.6396  9769.04  97.7843
 31.8376  9223.66  94.5519
 32.0356  9249.08  95.2617
 32.2336  9126.41  94.0363
 32.4316  8880.58  93.1436
 32.6296  8760.41  92.3562
 32.8276  8797.4  92.3409
 33.0256  8770.16  92.2588
 33.2236  8911.93  93.1449
 33.4216  8670.52  91.5645
 33.6196  8691.23  91.9536
 33.8176  8689.17  92.1107
 34.0156  8578.48  91.1666
 34.2136  8654.04  91.5949
 34.4116  8410.38  90.4515
 34.6096  8514.68  90.8888
 34.8076  8407.34  90.7304
 35.0056  8435.47  90.5528
 35.2036  8616.95  91.7514
 35.4016  8370.86  90.3373
 35.5996  8394.77  90.5027
 35.7976  8335.24  90.4407
 35.9956  8424.28  90.5847
 36.1936  8388.32  90.2427
 36.3916  8205.27  89.4495
 36.5896  8283.69  90.8609
 36.7876  7953.14  88.4242
 36.9856  8014.44  88.7803
 37.1836  7904.31  87.2976
 37.3816  7883.03  87.538
 37.5796  8023.77  90.0344
 37.7776  8166.39  89.212
 37.9756  8101.54  88.7376
 38.1736  8145.41  89.169
 38.3716  7971.48  88.4758
 38.5696  7864.81  88.2387
 38.7676  7762.82  87.2
 38.9656  7823.62  87.1632
 39.1636  7963.3  88.2258
 39.3616  7871.2  87.6375
 39.5596  7714.2  87.5952
 39.7576  7722.93  87.0309
 39.9556  7789.71  87.0469
 40.1536  7953.3  88.1532
 40.3516  7932.7  88.0411
 40.5496  7804.51  87.5831
 40.7476  7969.14  88.5042
 40.9456  7953.35  88.181
 41.1436  7961.52  87.9407
 41.3416  7819.74  87.4907
 41.5396  7872.42  87.5944
 41.7376  7800.79  87.4575
 41.9356  7738.76  86.9618
 42.1336  7995.74  88.5505
 42.3316  7797.4  87.6361
 42.5296  7801.22  87.1752
 42.7276  7782.23  87.3138
 42.9256  7786.76  87.214
 43.1236  7661.67  86.6121
 43.3216  7809.84  87.1999
 43.5196  7635.74  86.2805
 43.7176  7585.38  86.3787
 43.9156  7527.17  85.9647
 44.1136  7421.37  84.9142
 44.3116  7570.81  85.7803
 44.5096  7373.11  84.9581
 44.7076  7375.24  84.8963
 44.9056  7627.1  86.2187
 45.1036  7516.06  85.2145
 45.3016  7541.45  85.8552
 45.4996  7436  85.192
 45.6976  7391.06  85.1083
 45.8956  7471.18  85.3909
 46.0936  7554.92  85.8779
 46.2916  7563.56  85.8956
 46.4896  7532.62  85.7466
 46.6876  7522.03  86.4147
 46.8856  7443.9  85.2101
 47.0836  7397.19  85.202
 47.2816  7337.5  84.7305
 47.4796  7382.72  85.1005
 47.6776  7306.72  85.6121
 47.8756  7306.12  84.7751
 48.0736  7342.05  85.4531
 48.2716  7165.06  84.2224
 48.4696  7398.19  85.1706
 48.6676  7334.65  85.406
 48.8656  7426.26  85.6516
 49.0636  7471.78  85.8668
 49.2616  7211.61  84.3889
 49.4596  7299.53  84.4552
 49.6576  7155.05  83.8345
 49.8556  7274.42  84.5623
 50.0536  7248.94  84.8695
 50.2516  7191.82  84.6649
 50.4496  7187.23  84.2907
 50.6476  7203.39  84.0642
 50.8456  7215.5  84.2188
 51.0436  7014.79  83.4862
 51.2416  6872.85  82.3051
 51.4396  6754.58  81.9975
 51.6376  6914.56  82.7836
 51.8356  6950.06  82.6123
 52.0336  6886.38  82.7713
 52.2316  6933.45  83.4088
 52.4296  6869.85  82.7203
 52.6276  6796.38  82.3794
 52.8256  6977.67  83.0353
 53.0236  7029.09  83.989
 53.2216  6891.55  83.2033
 53.4196  6910.09  83.2096
 53.6176  6850.77  83.3648
 53.8156  6804.09  82.7541
 54.0136  6628.24  81.8452
 54.2116  6749.38  82.2174
 54.4096  6487.57  80.6754
 54.6076  6523.69  81.2348
 54.8056  6445.64  80.5295
 55.0036  6417.67  80.7636
 55.2016  6655.2  81.7554
 55.3996  6348.86  79.8496
 55.5976  6444.28  80.6405
 55.7956  6383.6  80.058
 55.9936  6555.33  81.2595
 56.1916  6403.23  80.3541
 56.3896  6201.03  79.0431
 56.5876  6291.56  80.1894
 56.7856  6230.07  79.2951
 56.9836  6360.03  79.8909
 57.1816  6300.02  79.8769
 57.3796  6212.75  79.1299
 57.5776  6210.63  79.014
 57.7756  5998.55  78.3095
 57.9736  6108.3  78.6908
 58.1716  6051.61  78.5825
 58.3696  5828.96  76.881
 58.5676  5978.77  77.3291
 58.7656  5796.68  76.8109
 58.9636  5883.39  77.409
 59.1616  5891.49  77.5974
 59.3596  5958.16  77.2995
 59.5576  5994.8  77.5931
 59.7556  6013.63  78.1322
 59.9536  6004.51  77.9721
 60.1516  5832.8  77.6832
 60.1996  0.0000000E+00  0.0000000E+00