File: docs/examples/XRD/IS17_D/Data/IS17_D/17_Da_f00099.xye
# /beamlines/bl04/projects/cycle2025-II/20250340211-lsimonelli/DATA/IS17_D/17_Da_f00099.xye : mythproc.py merge -s 0.006 -l 0.5 -f /beamlines/bl04/inhouse/ff/FlatField/ff_20Nov2024rod8mm60s_17keV.raw -b True -c true -o xye /beamlines/bl04/projects/cycle2025-II/20250340211-lsimonelli/DATA/IS17_D/17_Da_00099.dat
# IsMon = [6767523, 6767497, 6767923]  IsPos = [-1.4999, -2.4884, -3.4988]
# Wave = 0.4962  CalPath /beamlines/bl04/projects/cycle2025-II/20250340211-lsimonelli/DATA/Align/Si_Pos1_25keV_f00001.cal
# Date = 2025-09-24_21:08:51 Dt = 4.8000  Bin = 0.0060  <imon> = 6767648 +/- 195 (Min/Max) 6767497 / 6767923
# icurr 250.5404  mocoIn 1.7087E-05  mocoOut 0.8018  i15 7.08228e+06  imon 6.76765e+06  i7 4.0000  iEMpd_timer 4.8000  iEMpd_1 3.4446E-08  iEMpd_2 7.7799E-08  iEMpd_3 1.7266E-08  iEMpd_4 4.8447E-08  iEMhp_timer 4.8000  iEMhp_1 4.8939E-06  iEMhp_2 -2.4471E-08  iEMhp_3 -2.3910E-08  iEMhp_4 -2.2482E-08
#      9776
 1.7416  70710.7  265.994
 1.9396  46111.9  215.083
 2.1376  32836.6  181.493
 2.3356  29583.9  171.907
 2.5336  27610.2  166.658
 2.7316  26008.5  161.863
 2.9296  24905.9  158.559
 3.1276  24186.7  155.8
 3.3256  23993.8  154.848
 3.5236  25800.1  160.377
 3.7216  23694.2  154.93
 3.9196  22820.8  151.289
 4.1176  22813.2  151.029
 4.3156  24284.5  155.985
 4.5136  26489.7  161.897
 4.7116  27531  166.189
 4.9096  26785.1  163.362
 5.1076  26330  162.54
 5.3056  26923.3  164.093
 5.5036  26691.6  163.279
 5.7016  27011.3  164.222
 5.8996  27858.2  165.985
 6.0976  28393.4  169.014
 6.2956  28852.8  169.71
 6.4936  29685.5  171.32
 6.6916  29678.1  172.307
 6.8896  30657.5  174.986
 7.0876  31585.3  178.342
 7.2856  31369.2  176.794
 7.4836  31864.8  177.517
 7.6816  32500  179.811
 7.8796  33814.9  183.396
 8.0776  35279  188.311
 8.2756  37358.5  192.381
 8.4736  37747.3  193.193
 8.6716  37255.3  192.565
 8.8696  37128.3  192.704
 9.0676  36071  189.308
 9.2656  34884.1  186.85
 9.4636  34597.9  184.5
 9.6616  33932.4  183.487
 9.8596  32634.3  179.417
 10.0576  30793  174.938
 10.2556  29729.3  172.324
 10.4536  28581.2  168.572
 10.6516  27946.3  166.881
 10.8496  27407.4  164.683
 11.0476  26552.1  162.118
 11.2456  25962.4  160.834
 11.4436  26104.1  160.448
 11.6416  26488.6  161.985
 11.8396  24370.4  155.569
 12.0376  24292.9  154.972
 12.2356  23950.7  154.277
 12.4336  23760  153.211
 12.6316  23522.4  152.703
 12.8296  23765.8  153.135
 13.0276  24380  155.282
 13.2256  24424.9  155.785
 13.4236  24271  155.062
 13.6216  24150  154.692
 13.8196  24343  155.078
 14.0176  23781.8  153.563
 14.2156  23323.5  151.128
 14.4136  22432.4  149.581
 14.6116  21821.7  146.75
 14.8096  21371.5  145.208
 15.0076  20062  144.469
 15.2056  19879.8  139.658
 15.4036  18918.4  137.062
 15.6016  18708.5  135.385
 15.7996  18094.7  133.42
 15.9976  17361.4  133.617
 16.1956  16790.9  129.295
 16.3936  16471.2  127.238
 16.5916  16296.1  127.19
 16.7896  16264.2  127.124
 16.9876  16139.7  128.1
 17.1856  15992.6  125.881
 17.3836  15404.4  123.444
 17.5816  14867  121.748
 17.7796  14729.2  121.117
 17.9776  14522.2  121.043
 18.1756  14661.6  120.346
 18.3736  14447.4  119.969
 18.5716  14257.1  118.924
 18.7696  14385.1  119.032
 18.9676  14031.3  117.367
 19.1656  14076.4  118.114
 19.3636  13994  117.973
 19.5616  13894.7  117.717
 19.7596  13839.4  116.89
 19.9576  14189.9  118.415
 20.1556  14745.6  121.251
 20.3536  13785.8  116.613
 20.5516  13336.4  115.141
 20.7496  13175.3  114.38
 20.9476  12980  113.288
 21.1456  13141.1  114.319
 21.3436  12910.6  113.263
 21.5416  12735.4  112.492
 21.7396  12710.3  112.225
 21.9376  12638.7  111.679
 22.1356  12631.1  111.763
 22.3336  12586.1  111.862
 22.5316  12621.9  112.108
 22.7296  12697.1  111.797
 22.9276  12576.1  111.933
 23.1256  12709.8  112.017
 23.3236  12741.4  112.713
 23.5216  12554.8  111.536
 23.7196  12405  110.812
 23.9176  12268.5  109.96
 24.1156  12220.9  110.22
 24.3136  11678.7  108.53
 24.5116  11918.7  109.168
 24.7096  11482.6  106.972
 24.9076  11224.8  105.789
 25.1056  11039.7  105.373
 25.3036  11015.6  104.768
 25.5016  11087.6  105.134
 25.6996  10914.9  103.911
 25.8976  10862  104.082
 26.0956  10922.4  104.4
 26.2936  10928.4  104.075
 26.4916  10965.9  104.129
 26.6896  10586  102.608
 26.8876  10512.1  102.099
 27.0856  10536.1  102.266
 27.2836  10286.9  100.948
 27.4816  10209.6  100.502
 27.6796  10207.6  100.861
 27.8776  10112  100.251
 28.0756  10078.3  100.369
 28.2736  10038  99.7531
 28.4716  9814.87  98.6854
 28.6696  9683.91  97.8705
 28.8676  9616.47  97.8762
 29.0656  9693.02  98.2419
 29.2636  9714.67  98.1462
 29.4616  9637.96  97.9416
 29.6596  9530.26  96.9612
 29.8576  9480.86  97.3929
 30.0556  9527.46  97.5101
 30.2536  9629.65  97.8247
 30.4516  9257.67  95.5749
 30.6496  9370.23  95.8822
 30.8476  9282.13  95.8645
 31.0456  9326.03  96.0525
 31.2436  9211.3  94.736
 31.4416  9148.12  94.5904
 31.6396  9188.16  94.8439
 31.8376  9220.4  94.5588
 32.0356  9044.79  94.211
 32.2336  8981.05  93.2683
 32.4316  8916.32  93.3407
 32.6296  8908.07  93.1361
 32.8276  8927.61  93.0093
 33.0256  8858.14  92.7281
 33.2236  8869.74  92.9316
 33.4216  8913.75  92.8433
 33.6196  8851.64  92.8223
 33.8176  8761.53  92.5139
 34.0156  8697.66  91.7889
 34.2136  8653.03  91.5939
 34.4116  8586.22  91.3919
 34.6096  8567.31  91.1694
 34.8076  8522.65  91.3304
 35.0056  8537.17  91.1055
 35.2036  8508.08  91.1501
 35.4016  8369.34  90.333
 35.5996  8316.81  90.0853
 35.7976  8226.27  89.8678
 35.9956  8351.6  90.1997
 36.1936  8281.8  89.6911
 36.3916  8269.94  89.8007
 36.5896  8165.28  90.1945
 36.7876  8217.11  89.8902
 36.9856  8092.77  89.2342
 37.1836  8167.7  88.751
 37.3816  8206.29  89.3251
 37.5796  8058.48  90.2253
 37.7776  7902.65  87.7445
 37.9756  7951.57  87.9015
 38.1736  8060.16  88.6959
 38.3716  8017.15  88.7334
 38.5696  7902.72  88.4733
 38.7676  7715.77  86.9297
 38.9656  7893.66  87.5651
 39.1636  7768.13  87.1291
 39.3616  7721.98  86.8008
 39.5596  7908.72  88.6844
 39.7576  7725.53  87.032
 39.9556  7911.44  87.7157
 40.1536  7917.9  87.9561
 40.3516  8065.7  88.786
 40.5496  7952.19  88.4194
 40.7476  8039.7  88.9113
 40.9456  7904.94  87.9131
 41.1436  7934.44  87.7964
 41.3416  7809.73  87.4385
 41.5396  7847.94  87.4535
 41.7376  7883.05  87.9236
 41.9356  7728.78  86.9163
 42.1336  7789.31  87.4045
 42.3316  7765.13  87.4669
 42.5296  7887.03  87.663
 42.7276  7751.91  87.1483
 42.9256  7722.13  86.8446
 43.1236  7725.01  86.9764
 43.3216  7760.29  86.9211
 43.5196  7642.59  86.3281
 43.7176  7700.55  87.0479
 43.9156  7649  86.6641
 44.1136  7444.74  85.0578
 44.3116  7425.81  84.9644
 44.5096  7500.9  85.6996
 44.7076  7490.3  85.57
 44.9056  7413.25  84.9958
 45.1036  7305.72  84.0106
 45.3016  7304.93  84.4964
 45.4996  7276.22  84.268
 45.6976  7146.29  83.6888
 45.8956  7376.62  84.8444
 46.0936  7343.91  84.6572
 46.2916  7182.68  83.7072
 46.4896  7378.15  84.8727
 46.6876  7264.7  84.9234
 46.8856  7149.83  83.5025
 47.0836  7062.71  83.2497
 47.2816  7087.13  83.2727
 47.4796  7034.71  83.0718
 47.6776  6980.78  83.6893
 47.8756  7041.41  83.2259
 48.0736  6996.44  83.4131
 48.2716  6816.82  82.1569
 48.4696  6938.33  82.4777
 48.6676  6984.74  83.3414
 48.8656  6890.37  82.4976
 49.0636  6956.55  82.8401
 49.2616  6814.6  82.0362
 49.4596  6853.74  81.8421
 49.6576  6731.97  81.3324
 49.8556  6740.54  81.4021
 50.0536  6723.38  81.7294
 50.2516  6733.05  81.9305
 50.4496  6640.35  81.024
 50.6476  6762.19  81.45
 50.8456  6510.81  80.0031
 51.0436  6559.84  80.7427
 51.2416  6570.57  80.4855
 51.4396  6405.92  79.8616
 51.6376  6422.35  79.785
 51.8356  6399.28  79.2861
 52.0336  6369.29  79.5981
 52.2316  6386.26  80.0445
 52.4296  6355.63  79.5496
 52.6276  6433.88  80.1524
 52.8256  6382.71  79.3921
 53.0236  6285.26  79.4233
 53.2216  6226.33  79.0773
 53.4196  6106.24  78.2442
 53.6176  6267.72  79.7433
 53.8156  6146.31  78.6388
 54.0136  6224.02  79.3132
 54.2116  6116.08  78.2915
 54.4096  6185.32  78.7841
 54.6076  6143.86  78.8597
 54.8056  6175.97  78.8581
 55.0036  6132.16  78.9624
 55.2016  6141.18  78.5749
 55.3996  6136.06  78.5126
 55.5976  6193.06  79.0538
 55.7956  6070  78.0909
 55.9936  6091.42  78.3651
 56.1916  6099.52  78.431
 56.3896  6111.88  78.5032
 56.5876  6033.65  78.5411
 56.7856  6016.88  77.9175
 56.9836  6045.31  77.8951
 57.1816  6051.16  78.3074
 57.3796  6122.11  78.5637
 57.5776  6092.18  78.2964
 57.7756  5999.22  78.3343
 57.9736  6118.22  78.7807
 58.1716  6076.27  78.7453
 58.3696  6054.94  78.362
 58.5676  6102.63  78.1466
 58.7656  5967.71  77.9324
 58.9636  6028.05  78.3659
 59.1616  6054.92  78.6628
 59.3596  6187.72  78.7835
 59.5576  6148.5  78.5907
 59.7556  6105.64  78.7369
 59.9536  6114.53  78.6924
 60.1516  6192.64  80.053
 60.1996  0.0000000E+00  0.0000000E+00