File: docs/examples/XRD/IS17_D/Data/IS17_D/17_Da_f00013.xye
# /beamlines/bl04/projects/cycle2025-II/20250340211-lsimonelli/DATA/IS17_D/17_Da_f00013.xye : mythproc.py merge -s 0.006 -l 0.5 -f /beamlines/bl04/inhouse/ff/FlatField/ff_20Nov2024rod8mm60s_17keV.raw -b True -c true -o xye /beamlines/bl04/projects/cycle2025-II/20250340211-lsimonelli/DATA/IS17_D/17_Da_00013.dat
# IsMon = [6752080, 6752860, 6751055]  IsPos = [-1.5000, -2.4885, -3.4986]
# Wave = 0.4962  CalPath /beamlines/bl04/projects/cycle2025-II/20250340211-lsimonelli/DATA/Align/Si_Pos1_25keV_f00001.cal
# Date = 2025-09-23_21:09:41 Dt = 4.8000  Bin = 0.0060  <imon> = 6751998 +/- 739 (Min/Max) 6751055 / 6752860
# icurr 250.2091  mocoIn 1.7066E-05  mocoOut 0.8005  i15 7.06964e+06  imon 6.752e+06  i7 4.6667  iEMpd_timer 4.8000  iEMpd_1 3.4456E-08  iEMpd_2 7.8268E-08  iEMpd_3 1.6763E-08  iEMpd_4 4.7728E-08  iEMhp_timer 4.8000  iEMhp_1 4.8888E-06  iEMhp_2 -2.4982E-08  iEMhp_3 -2.4157E-08  iEMhp_4 -2.1525E-08
#      9776
 1.7416  67761.3  260.383
 1.9396  43414.5  208.69
 2.1376  30115.8  173.808
 2.3356  26954.2  164.086
 2.5336  29168.1  171.293
 2.7316  23960.6  155.355
 2.9296  22496.3  150.689
 3.1276  21926.3  148.339
 3.3256  21796.3  147.578
 3.5236  23660.3  153.71
 3.7216  21516.6  147.645
 3.9196  21637.7  147.315
 4.1176  20967.3  144.782
 4.3156  22276.6  149.402
 4.5136  25523.6  158.916
 4.7116  26108.6  161.841
 4.9096  25257  158.63
 5.1076  24792.5  157.723
 5.3056  25069.2  158.234
 5.5036  24563  156.648
 5.7016  24984.5  157.94
 5.8996  25452.8  158.659
 6.0976  26231.1  162.449
 6.2956  26769.5  163.472
 6.4936  27625.8  165.28
 6.6916  27987.7  167.329
 6.8896  29080.3  170.428
 7.0876  29881.3  173.383
 7.2856  29722.6  172.088
 7.4836  30251.2  172.963
 7.6816  30909  175.355
 7.8796  32490.3  179.784
 8.0776  37097  193.106
 8.2756  37009.4  191.487
 8.4736  36673.2  190.421
 8.6716  35925.5  189.092
 8.8696  37195.9  192.89
 9.0676  36206.4  189.672
 9.2656  33627.4  183.464
 9.4636  33091.8  180.455
 9.6616  32275.6  178.96
 9.8596  30969.1  174.77
 10.0576  29435.3  171.034
 10.2556  28418.9  168.474
 10.4536  33815  183.35
 10.6516  34583.2  185.639
 10.8496  26389  161.591
 11.0476  26659.3  162.393
 11.2456  29676.9  171.957
 11.4436  25505.1  158.59
 11.6416  24719.3  156.486
 11.8396  23567.8  152.988
 12.0376  23157.7  151.29
 12.2356  25226.6  158.367
 12.4336  23999  153.981
 12.6316  22482  149.289
 12.8296  23381.7  151.894
 13.0276  23739  153.228
 13.2256  23178.8  151.761
 13.4236  23434  152.368
 13.6216  23164.6  151.505
 13.8196  24269.3  154.849
 14.0176  23053.5  151.201
 14.2156  22438  148.233
 14.4136  21268  145.652
 14.6116  20979.3  143.887
 14.8096  20205.9  141.202
 15.0076  19408.5  142.095
 15.2056  18907  136.197
 15.4036  18156.6  134.278
 15.6016  17813  132.103
 15.7996  17503.3  131.23
 15.9976  16410.6  129.939
 16.1956  16143.8  126.783
 16.3936  15829  124.735
 16.5916  15665.6  124.706
 16.7896  15664.3  124.764
 16.9876  15451.7  125.34
 17.1856  15561.2  124.161
 17.3836  14436.9  119.494
 17.5816  14500.6  120.236
 17.7796  14561  120.422
 17.9776  14681.8  121.714
 18.1756  16179.9  126.426
 18.3736  15619.3  124.735
 18.5716  14010.6  117.894
 18.7696  13939.7  117.176
 18.9676  13671.1  115.848
 19.1656  13510  115.718
 19.3636  13415.1  115.505
 19.5616  13426.5  115.718
 19.7596  13248.1  114.363
 19.9576  14073.2  117.927
 20.1556  13091.3  114.248
 20.3536  13002.8  113.247
 20.5516  12682.6  112.282
 20.7496  12409.6  110.922
 20.9476  13089.6  113.764
 21.1456  13134.6  114.287
 21.3436  12521.3  111.541
 21.5416  12404.9  111.024
 21.7396  12237.8  110.115
 21.9376  12325  110.288
 22.1356  12516.4  111.288
 22.3336  12467.5  111.313
 22.5316  12241.2  110.403
 22.7296  12062.2  108.97
 22.9276  12119.8  109.891
 23.1256  12708.4  112.009
 23.3236  12017.1  109.453
 23.5216  12172.4  109.832
 23.7196  11824  108.4
 23.9176  11743.1  107.58
 24.1156  11566.6  107.234
 24.3136  11659  108.437
 24.5116  11583.2  107.617
 24.7096  11343.8  106.319
 24.9076  11124.3  105.31
 25.1056  10950.4  104.665
 25.3036  10758  103.536
 25.5016  10860.5  104.06
 25.6996  10829.7  103.503
 25.8976  10999.3  104.741
 26.0956  10891.3  104.253
 26.2936  10592  102.461
 26.4916  10774.3  103.218
 26.6896  10223.8  100.839
 26.8876  10240.7  100.774
 27.0856  10265  100.897
 27.2836  10126.7  100.321
 27.4816  10198.7  100.444
 27.6796  9921.16  99.4419
 27.8776  10246.9  100.916
 28.0756  9931.82  99.6378
 28.2736  10000.2  99.5618
 28.4716  9652.59  97.8629
 28.6696  9581.78  97.3583
 28.8676  9417.48  96.8562
 29.0656  9461.07  97.062
 29.2636  9330.11  96.1037
 29.4616  9325.81  96.3435
 29.6596  9292.25  95.7444
 29.8576  9222.28  96.0572
 30.0556  9401.88  96.871
 30.2536  9333.79  96.3109
 30.4516  9230.55  95.4381
 30.6496  9162.63  94.8184
 30.8476  9111.31  94.9823
 31.0456  9067.35  94.7133
 31.2436  8948.98  93.3793
 31.4416  8772.31  92.6201
 31.6396  9366.58  95.756
 31.8376  9053.68  93.6974
 32.0356  8901.24  93.4544
 32.2336  8765.19  92.1402
 32.4316  8834.33  92.9094
 32.6296  8714.7  92.0504
 32.8276  8648.43  91.5451
 33.0256  8819.2  92.5202
 33.2236  8562.58  91.3086
 33.4216  8590.26  91.1559
 33.6196  8492.57  90.9187
 33.8176  8582.75  91.5607
 34.0156  8363.82  90.0042
 34.2136  8439.67  90.4553
 34.4116  8365.04  90.2089
 34.6096  8390.53  90.2222
 34.8076  8308.18  90.1767
 35.0056  8323.29  89.9577
 35.2036  8305.48  90.0613
 35.4016  8218.23  89.5183
 35.5996  8181.75  89.3546
 35.7976  7995.27  88.5958
 35.9956  8197.37  89.3567
 36.1936  8149.09  88.9675
 36.3916  8043.69  88.5638
 36.5896  8247.94  91.1151
 36.7876  8186.8  89.7251
 36.9856  8026.17  88.8677
 37.1836  7979.22  87.7215
 37.3816  7999.31  88.1943
 37.5796  7832.41  88.9584
 37.7776  7748.31  86.886
 37.9756  7769.2  86.8848
 38.1736  8117.61  89.014
 38.3716  7901.26  88.0934
 38.5696  7737.24  87.5401
 38.7676  7543.98  85.9532
 38.9656  7711.29  86.5442
 39.1636  7630.28  86.3103
 39.3616  7739.19  86.892
 39.5596  7691.27  87.4541
 39.7576  7637.58  86.5427
 39.9556  7707.06  86.5817
 40.1536  7829.06  87.4651
 40.3516  7710.93  86.8954
 40.5496  7778.29  87.2455
 40.7476  7797.56  87.563
 40.9456  7850.86  87.6103
 41.1436  7706.38  86.5244
 41.3416  7724.99  86.9632
 41.5396  7596.96  86.052
 41.7376  7651.59  86.621
 41.9356  7603.05  86.206
 42.1336  7642.7  86.5761
 42.3316  7600.61  86.5349
 42.5296  7650.88  86.342
 42.7276  7658.95  86.6208
 42.9256  7607.09  86.203
 43.1236  7517.3  85.7985
 43.3216  7519.18  85.6651
 43.5196  7502.62  85.5286
 43.7176  7386.03  85.2512
 43.9156  7437.42  85.4607
 44.1136  7389.95  84.7464
 44.3116  7403.68  84.8377
 44.5096  7365.3  84.9239
 44.7076  7324.16  84.6104
 44.9056  7247.45  84.044
 45.1036  7301.35  83.9871
 45.3016  7121.3  83.4307
 45.4996  7184.5  83.7416
 45.6976  7006.85  82.8744
 45.8956  7056.83  82.9827
 46.0936  7140.04  83.233
 46.2916  7103.62  83.2413
 46.4896  7168.09  83.6532
 46.6876  6961.94  83.1241
 46.8856  6896.6  82.1452
 47.0836  6966.34  82.6829
 47.2816  6871.52  81.9968
 47.4796  6914.1  82.3416
 47.6776  6800.36  82.6011
 47.8756  6915.54  82.472
 48.0736  6871.77  82.6443
 48.2716  6757.94  81.8017
 48.4696  6919.06  82.368
 48.6676  6819.24  82.3472
 48.8656  6726.93  81.5253
 49.0636  6864.45  82.299
 49.2616  6664.69  81.1306
 49.4596  6750.51  81.2084
 49.6576  6672.29  80.9746
 49.8556  6650.87  80.8582
 50.0536  6554.32  80.7048
 50.2516  6604.25  81.1141
 50.4496  6509.02  80.2172
 50.6476  6609.56  80.527
 50.8456  6610.06  80.6137
 51.0436  6353.53  79.464
 51.2416  6394.82  79.4022
 51.4396  6266.67  78.9878
 51.6376  6377.47  79.5144
 51.8356  6344.11  78.943
 52.0336  6146.82  78.199
 52.2316  6314.78  79.6005
 52.4296  6257.98  78.9398
 52.6276  6226.27  78.859
 52.8256  6304.32  78.9184
 53.0236  6034.54  77.8199
 53.2216  6051.4  77.936
 53.4196  6084.88  78.0945
 53.6176  6133.52  78.8803
 53.8156  6096.74  78.3239
 54.0136  6134.36  78.7429
 54.2116  6064.2  77.958
 54.4096  6125.72  78.3987
 54.6076  6069.81  78.3876
 54.8056  6057.62  78.0986
 55.0036  6007.53  78.0334
 55.2016  6031.23  77.7983
 55.3996  5995.71  77.6107
 55.5976  5996.97  77.7971
 55.7956  6037.06  77.8752
 55.9936  5890.08  77.0528
 56.1916  6034.42  78.0126
 56.3896  6013.94  77.874
 56.5876  5874.01  77.4982
 56.7856  5996.42  77.7931
 56.9836  5787.41  76.2115
 57.1816  5989.42  77.9047
 57.3796  5905.3  77.1347
 57.5776  6027.94  77.8926
 57.7756  5874.51  77.5108
 57.9736  5841.07  76.9736
 58.1716  5917.54  77.7122
 58.3696  5855.48  77.056
 58.5676  6006.16  77.5173
 58.7656  5940.57  77.7582
 58.9636  6034.25  78.4092
 59.1616  5968.32  78.1061
 59.3596  5972.87  77.4082
 59.5576  6123.72  78.4393
 59.7556  5920.59  77.5415
 59.9536  6069.22  78.4074
 60.1516  6020.77  78.9414
 60.1996  0.0000000E+00  0.0000000E+00