File: docs/examples/XRD/IS17_D/Data/IS17_D/17_Db_f00006.xye
# /beamlines/bl04/projects/cycle2025-II/20250340211-lsimonelli/DATA/IS17_D/17_Db_f00006.xye : mythproc.py merge -s 0.006 -l 0.5 -f /beamlines/bl04/inhouse/ff/FlatField/ff_20Nov2024rod8mm60s_17keV.raw -b True -c true -o xye /beamlines/bl04/projects/cycle2025-II/20250340211-lsimonelli/DATA/IS17_D/17_Db_00006.dat
# IsMon = [6768435, 6770462, 6769908]  IsPos = [-1.5000, -2.4885, -3.4988]
# Wave = 0.4962  CalPath /beamlines/bl04/projects/cycle2025-II/20250340211-lsimonelli/DATA/Align/Si_Pos1_25keV_f00001.cal
# Date = 2025-09-23_19:22:11 Dt = 4.8000  Bin = 0.0060  <imon> = 6769602 +/- 855 (Min/Max) 6768435 / 6770462
# icurr 252.0613  mocoIn 1.7200E-05  mocoOut 0.8068  i15 7.08464e+06  imon 6.7696e+06  i7 5.0000  iEMpd_timer 4.8000  iEMpd_1 3.5628E-08  iEMpd_2 7.7689E-08  iEMpd_3 1.6385E-08  iEMpd_4 4.8415E-08  iEMhp_timer 4.8000  iEMhp_1 4.9263E-06  iEMhp_2 -2.3654E-08  iEMhp_3 -2.3233E-08  iEMhp_4 -2.1480E-08
#      9776
 1.7416  70121.8  264.904
 1.9396  47306.6  217.855
 2.1376  34420.4  185.832
 2.3356  30688.9  175.102
 2.5336  30614.2  175.504
 2.7316  26144.7  162.291
 2.9296  25174.1  159.4
 3.1276  24316.8  156.218
 3.3256  23721.9  153.954
 3.5236  25364.2  159.148
 3.7216  23131.1  153.068
 3.9196  22903  151.522
 4.1176  22496.6  149.977
 4.3156  23514.4  153.496
 4.5136  26166.7  160.9
 4.7116  27086.8  164.833
 4.9096  26396.9  162.162
 5.1076  26084.5  161.775
 5.3056  25886.2  160.887
 5.5036  25791.8  160.59
 5.7016  25801.6  160.5
 5.8996  26501.9  161.909
 6.0976  27493.1  166.29
 6.2956  27450.5  165.528
 6.4936  28321.5  167.337
 6.6916  28676  169.356
 6.8896  29506.5  171.641
 7.0876  30865.2  176.209
 7.2856  30343.8  173.856
 7.4836  31121.5  175.426
 7.6816  31547  177.123
 7.8796  32342.9  179.352
 8.0776  34647.1  186.612
 8.2756  35833.9  188.417
 8.4736  36291.4  189.426
 8.6716  35693.9  188.47
 8.8696  37062.4  192.568
 9.0676  36040.4  189.227
 9.2656  34395  185.54
 9.4636  33476.3  181.526
 9.6616  32607.9  179.877
 9.8596  31988.6  177.604
 10.0576  30090  172.903
 10.2556  29283.2  171.021
 10.4536  30524.4  174.198
 10.6516  29786.9  172.296
 10.8496  26647.8  162.388
 11.0476  26037  160.48
 11.2456  26764.1  163.296
 11.4436  26171.8  160.66
 11.6416  24736.4  156.523
 11.8396  24050.9  154.536
 12.0376  23259.2  151.604
 12.2356  23759.3  153.689
 12.4336  23318.6  151.778
 12.6316  22916.8  150.72
 12.8296  23337.9  151.719
 13.0276  23331  151.901
 13.2256  23657.9  153.317
 13.4236  23238.8  151.729
 13.6216  23802.6  153.556
 13.8196  26304.2  160.87
 14.0176  22885.6  150.647
 14.2156  22472  148.33
 14.4136  21505.3  146.466
 14.6116  21101.1  144.295
 14.8096  20251.3  141.339
 15.0076  19467.2  142.386
 15.2056  18460.8  134.574
 15.4036  17352.4  131.268
 15.6016  17288  130.139
 15.7996  16796.2  128.542
 15.9976  16563.7  130.48
 16.1956  16237.1  127.106
 16.3936  16071  125.668
 16.5916  15898.1  125.625
 16.7896  16073.1  126.375
 16.9876  15570.7  125.796
 17.1856  15386.7  123.468
 17.3836  14933.1  121.549
 17.5816  14491.2  120.204
 17.7796  14786.6  121.356
 17.9776  14342.2  120.271
 18.1756  14941.6  121.507
 18.3736  14506.4  120.201
 18.5716  13805.7  117.028
 18.7696  13838.5  116.737
 18.9676  13672.4  115.837
 19.1656  13434  115.398
 19.3636  13257.7  114.827
 19.5616  13345.2  115.365
 19.7596  13656.4  116.113
 19.9576  14146.2  118.22
 20.1556  13262.2  114.979
 20.3536  12986.9  113.175
 20.5516  12803.6  112.81
 20.7496  12719.3  112.291
 20.9476  12864.2  112.778
 21.1456  12703.1  112.394
 21.3436  12453.8  111.234
 21.5416  12339.6  110.736
 21.7396  12208  109.988
 21.9376  12144  109.48
 22.1356  12324.6  110.559
 22.3336  11938.9  108.926
 22.5316  11971.3  109.183
 22.7296  11939.1  108.418
 22.9276  11815.7  108.506
 23.1256  12238.3  109.914
 23.3236  12220.8  110.401
 23.5216  12265.2  110.24
 23.7196  12084.4  109.599
 23.9176  12250.8  109.883
 24.1156  11884.9  108.679
 24.3136  11521.6  107.801
 24.5116  11673.1  108.032
 24.7096  11361.6  106.39
 24.9076  11201  105.674
 25.1056  10937.4  104.608
 25.3036  10553.6  102.537
 25.5016  10748.8  103.522
 25.6996  10671.3  102.743
 25.8976  10722.2  103.416
 26.0956  10639.7  103.021
 26.2936  10531.5  102.164
 26.4916  10876  103.675
 26.6896  10419  101.783
 26.8876  10415.2  101.616
 27.0856  10257.5  100.868
 27.2836  9938.93  99.2225
 27.4816  9933.36  99.128
 27.6796  9968.98  99.6713
 27.8776  10217.2  100.754
 28.0756  9773.3  98.8333
 28.2736  9793.52  98.5243
 28.4716  9548.05  97.3326
 28.6696  9579.92  97.3458
 28.8676  9427.16  96.9091
 29.0656  9382.56  96.655
 29.2636  9509.23  97.0201
 29.4616  9190.62  95.637
 29.6596  9148.57  94.9967
 29.8576  8882.01  94.2634
 30.0556  9111.07  95.3526
 30.2536  9100.64  95.0898
 30.4516  9242.27  95.4841
 30.6496  9267.46  95.3447
 30.8476  9122.94  95.0402
 31.0456  9119.44  94.9753
 31.2436  9282.59  95.1004
 31.4416  8998.64  93.8127
 31.6396  9118.2  94.4797
 31.8376  9173.84  94.2934
 32.0356  9061.45  94.2771
 32.2336  8920.22  92.9593
 32.4316  8728.11  92.3412
 32.6296  8630.33  91.6031
 32.8276  8692.64  91.7857
 33.0256  8579.78  91.253
 33.2236  8689.07  91.9704
 33.4216  8577.72  91.0781
 33.6196  8434.02  90.5931
 33.8176  8476.87  90.9897
 34.0156  8480.01  90.6388
 34.2136  8457.67  90.5411
 34.4116  8238.02  89.5187
 34.6096  8320.05  89.8451
 34.8076  8263.2  89.9481
 35.0056  8237.11  89.4851
 35.2036  8464.98  90.9323
 35.4016  8191.66  89.3655
 35.5996  8151.99  89.1889
 35.7976  8116.32  89.2535
 35.9956  8241.17  89.5881
 36.1936  8169.33  89.033
 36.3916  8062.21  88.6644
 36.5896  8190.65  90.8157
 36.7876  7728.11  87.1645
 36.9856  7671.89  86.8774
 37.1836  7722.6  86.2911
 37.3816  7743.48  86.7673
 37.5796  7747.35  88.4758
 37.7776  7842.74  87.4128
 37.9756  7907.91  87.6566
 38.1736  7981.19  88.2597
 38.3716  7807.76  87.5541
 38.5696  7753.06  87.6199
 38.7676  7702.29  86.8507
 38.9656  7758.27  86.796
 39.1636  7821.63  87.3862
 39.3616  7703  86.6921
 39.5596  7666  87.3068
 39.7576  7591.34  86.2861
 39.9556  7698.27  86.5348
 40.1536  7818.62  87.4033
 40.3516  7696.29  86.7252
 40.5496  7726.25  86.9342
 40.7476  7815.46  87.6555
 40.9456  7684.37  86.663
 41.1436  7832.84  87.2376
 41.3416  7688.52  86.7562
 41.5396  7700.44  86.6331
 41.7376  7673.69  86.7344
 41.9356  7523.71  85.747
 42.1336  7792.03  87.4084
 42.3316  7580.21  86.4125
 42.5296  7668.82  86.4379
 42.7276  7694.51  86.8154
 42.9256  7636.86  86.3608
 43.1236  7614.79  86.3388
 43.3216  7635  86.3158
 43.5196  7474.24  85.3599
 43.7176  7441.1  85.5572
 43.9156  7255.26  84.4028
 44.1136  7342.9  84.4717
 44.3116  7436.63  85.0185
 44.5096  7360.46  84.8913
 44.7076  7314.68  84.5527
 44.9056  7391.39  84.875
 45.1036  7434.52  84.7476
 45.3016  7301.74  84.4758
 45.4996  7433.94  85.1846
 45.6976  7228.69  84.1738
 45.8956  7389.08  84.9139
 46.0936  7493.12  85.2661
 46.2916  7410.39  85.0152
 46.4896  7430.78  85.1546
 46.6876  7283.42  85.0258
 46.8856  7215.5  83.8988
 47.0836  7242.57  84.307
 47.2816  7160.29  83.7035
 47.4796  7239.76  84.2761
 47.6776  7143.76  84.6581
 47.8756  7199.01  84.1575
 48.0736  7258.92  84.9616
 48.2716  7108.68  83.8904
 48.4696  7265.48  84.3927
 48.6676  7331.01  85.3839
 48.8656  7139.93  83.9874
 49.0636  7303.9  84.883
 49.2616  7091.68  83.6831
 49.4596  7200.63  83.8893
 49.6576  7080.84  83.4087
 49.8556  7196.52  84.1108
 50.0536  7111.01  84.0503
 50.2516  7122.79  84.2365
 50.4496  7103.6  83.8015
 50.6476  7244.13  84.2949
 50.8456  7152.84  83.8437
 51.0436  6950.9  83.1091
 51.2416  6843.41  82.1411
 51.4396  6702.29  81.6874
 51.6376  6902.2  82.7138
 51.8356  6830.83  81.907
 52.0336  6679.77  81.51
 52.2316  6755.41  82.3313
 52.4296  6801.91  82.3112
 52.6276  6732.27  81.9882
 52.8256  6792.24  81.923
 53.0236  6921.29  83.3428
 53.2216  6820.42  82.7451
 53.4196  6823.87  82.7023
 53.6176  6788.82  82.9907
 53.8156  6765.54  82.5101
 54.0136  6475.5  80.8958
 54.2116  6602.59  81.3221
 54.4096  6478.96  80.6233
 54.6076  6354.36  80.175
 54.8056  6494.98  80.836
 55.0036  6472.09  80.9682
 55.2016  6407.01  80.1343
 55.3996  6294.78  79.5004
 55.5976  6276.68  79.5868
 55.7956  6344.35  79.8209
 55.9936  6455.21  80.6357
 56.1916  6290.15  79.6326
 56.3896  6100  78.4091
 56.5876  6141.53  79.2159
 56.7856  6185.01  79.0101
 56.9836  6231.01  79.0694
 57.1816  6316.3  79.9804
 57.3796  6086.46  78.3148
 57.5776  6226.56  79.0971
 57.7756  6095.72  78.9272
 57.9736  6071.19  78.4319
 58.1716  6024.65  78.4069
 58.3696  5666.19  75.8017
 58.5676  5813.59  76.2594
 58.7656  5829.88  77.0374
 58.9636  5805.74  76.9039
 59.1616  5806.72  77.0385
 59.3596  5960.97  77.3267
 59.5576  5858.81  76.7168
 59.7556  5807.23  76.7885
 59.9536  5858.78  77.029
 60.1516  5892.12  78.0862
 60.1996  0.0000000E+00  0.0000000E+00