File: docs/examples/XRD/IS17_D/Data/IS17_D/17_Db_f00122.xye
# /beamlines/bl04/projects/cycle2025-II/20250340211-lsimonelli/DATA/IS17_D/17_Db_f00122.xye : mythproc.py merge -s 0.006 -l 0.5 -f /beamlines/bl04/inhouse/ff/FlatField/ff_20Nov2024rod8mm60s_17keV.raw -b True -c true -o xye /beamlines/bl04/projects/cycle2025-II/20250340211-lsimonelli/DATA/IS17_D/17_Db_00122.dat
# IsMon = [6770723, 6772238, 6770809]  IsPos = [-1.4999, -2.4884, -3.4988]
# Wave = 0.4962  CalPath /beamlines/bl04/projects/cycle2025-II/20250340211-lsimonelli/DATA/Align/Si_Pos1_25keV_f00001.cal
# Date = 2025-09-25_03:43:51 Dt = 4.8000  Bin = 0.0060  <imon> = 6771257 +/- 695 (Min/Max) 6770723 / 6772238
# icurr 251.6638  mocoIn 1.7178E-05  mocoOut 0.8053  i15 7.09242e+06  imon 6.77126e+06  i7 4.3333  iEMpd_timer 4.8000  iEMpd_1 3.4874E-08  iEMpd_2 7.9463E-08  iEMpd_3 1.8176E-08  iEMpd_4 4.7868E-08  iEMhp_timer 4.8000  iEMhp_1 4.9168E-06  iEMhp_2 -2.4747E-08  iEMhp_3 -2.5602E-08  iEMhp_4 -2.1903E-08
#      9776
 1.7416  70801  266.171
 1.9396  48870.6  221.424
 2.1376  36079.8  190.25
 2.3356  32168.8  179.265
 2.5336  30153  174.169
 2.7316  27609.3  166.769
 2.9296  26686.3  164.116
 3.1276  25836  161.023
 3.3256  25208.5  158.704
 3.5236  26622.6  162.889
 3.7216  24580.8  157.793
 3.9196  24097  155.426
 4.1176  23966.5  154.795
 4.3156  25008.5  158.301
 4.5136  27149.4  163.894
 4.7116  28312.9  168.524
 4.9096  27611.1  165.845
 5.1076  27182.6  165.145
 5.3056  27185.4  164.874
 5.5036  27040.9  164.344
 5.7016  27604.5  166.01
 5.8996  28172.1  166.927
 6.0976  29088.2  171.042
 6.2956  29121.7  170.495
 6.4936  29835  171.752
 6.6916  30242.1  173.918
 6.8896  30805  175.374
 7.0876  31821  179.001
 7.2856  31899.7  178.257
 7.4836  32432.8  179.081
 7.6816  33263.3  181.882
 7.8796  33860.4  183.518
 8.0776  35476.1  188.836
 8.2756  37178.5  191.924
 8.4736  37425.6  192.368
 8.6716  37253.2  192.545
 8.8696  37980.7  194.94
 9.0676  37243.4  192.361
 9.2656  36253.1  190.491
 9.4636  35267.9  186.325
 9.6616  34542.2  185.131
 9.8596  34069.5  183.29
 10.0576  31763  177.655
 10.2556  30856.8  175.556
 10.4536  29870.8  172.324
 10.6516  29271.6  170.796
 10.8496  27928.1  166.251
 11.0476  27227.7  164.164
 11.2456  26504.8  162.503
 11.4436  26867.2  162.777
 11.6416  26641.2  162.433
 11.8396  25305  158.511
 12.0376  24776.8  156.501
 12.2356  24164.8  154.962
 12.4336  24314.3  154.986
 12.6316  24154.7  154.743
 12.8296  24243.1  154.638
 13.0276  24616.1  156.034
 13.2256  24699.4  156.662
 13.4236  24749.8  156.59
 13.6216  24933.9  157.173
 13.8196  27090.7  163.329
 14.0176  24111.1  154.633
 14.2156  23724  152.413
 14.4136  22409.6  149.507
 14.6116  22247.5  148.161
 14.8096  21445.9  145.452
 15.0076  20452.8  145.947
 15.2056  19506.4  138.337
 15.4036  18780.3  136.569
 15.6016  18273.9  133.802
 15.7996  17994.6  133.054
 15.9976  17536.3  134.243
 16.1956  17198  130.819
 16.3936  17035  129.383
 16.5916  16760.4  128.988
 16.7896  16661.7  128.665
 16.9876  16527.9  129.601
 17.1856  16333.8  127.207
 17.3836  15753.6  124.839
 17.5816  15442.5  124.085
 17.7796  15313.2  123.489
 17.9776  15015.6  123.072
 18.1756  15172.3  122.442
 18.3736  14665.2  120.862
 18.5716  14402.3  119.526
 18.7696  14654.2  120.134
 18.9676  14450.8  119.09
 19.1656  14107  118.255
 19.3636  13982.7  117.921
 19.5616  14046.2  118.361
 19.7596  14395.8  119.221
 19.9576  14677.3  120.42
 20.1556  14348.9  119.599
 20.3536  13769.1  116.544
 20.5516  13512.8  115.899
 20.7496  13435.6  115.502
 20.9476  13371.6  114.978
 21.1456  13104.5  114.153
 21.3436  13114.5  114.144
 21.5416  12918.6  113.304
 21.7396  12881.8  112.977
 21.9376  12663.8  111.801
 22.1356  12857.9  112.769
 22.3336  12466  111.324
 22.5316  12444.6  111.323
 22.7296  12734.6  111.963
 22.9276  12401.2  111.164
 23.1256  12611.9  111.587
 23.3236  12780.3  112.903
 23.5216  12777.1  112.522
 23.7196  12514.8  111.314
 23.9176  12655.7  111.679
 24.1156  12398.9  111.009
 24.3136  12138.2  110.639
 24.5116  12206.1  110.46
 24.7096  11698.1  107.952
 24.9076  11640.6  107.726
 25.1056  11420.9  107.164
 25.3036  11209.1  105.673
 25.5016  11133.4  105.36
 25.6996  11203.6  105.275
 25.8976  11184.8  105.615
 26.0956  10959.1  104.566
 26.2936  11039.1  104.6
 26.4916  11215  105.291
 26.6896  10813.3  103.686
 26.8876  10867.3  103.809
 27.0856  10587.4  102.524
 27.2836  10516.8  102.065
 27.4816  10463  101.739
 27.6796  10287.2  101.252
 27.8776  10473.6  102.006
 28.0756  10243.9  101.183
 28.2736  10221.8  100.654
 28.4716  10091.2  100.062
 28.6696  10021  99.5603
 28.8676  9912.35  99.3739
 29.0656  9717.97  98.3703
 29.2636  9840.68  98.7767
 29.4616  9516.07  97.3186
 29.6596  9583.32  97.2302
 29.8576  9309.18  96.5058
 30.0556  9453.37  97.129
 30.2536  9583.69  97.5869
 30.4516  9601.02  97.3174
 30.6496  9595.95  97.0294
 30.8476  9599.89  97.4896
 31.0456  9669.94  97.8038
 31.2436  9491.32  96.1651
 31.4416  9454.48  96.1526
 31.6396  9443  96.1406
 31.8376  9366.97  95.2816
 32.0356  9365.64  95.8446
 32.2336  9339.67  95.1147
 32.4316  9073.77  94.1563
 32.6296  8934.28  93.2673
 32.8276  9016.63  93.4828
 33.0256  8939.68  93.1313
 33.2236  9115.3  94.1996
 33.4216  8969.48  93.13
 33.6196  8922.16  93.1768
 33.8176  8801.22  92.7057
 34.0156  8807.74  92.3762
 34.2136  8939.08  93.0798
 34.4116  8636.63  91.6647
 34.6096  8715.15  91.9511
 34.8076  8593.3  91.7262
 35.0056  8657.96  91.7365
 35.2036  8810.88  92.7737
 35.4016  8525.79  91.1709
 35.5996  8547.84  91.3294
 35.7976  8463.95  91.1508
 35.9956  8622.82  91.6495
 36.1936  8584.09  91.2931
 36.3916  8314.46  90.0398
 36.5896  8364.7  91.3007
 36.7876  8240.99  90.0179
 36.9856  8039.17  88.9345
 37.1836  8095.06  88.3534
 37.3816  8095.45  88.7206
 37.5796  8177.25  90.8961
 37.7776  8310.55  89.9843
 37.9756  8285.46  89.7311
 38.1736  8354.14  90.3012
 38.3716  8081.06  89.0809
 38.5696  8056.42  89.3227
 38.7676  7968.95  88.3405
 38.9656  8098.18  88.6663
 39.1636  8079.73  88.8597
 39.3616  8080.25  88.7918
 39.5596  7928.52  88.786
 39.7576  7975.82  88.4441
 39.9556  8010.32  88.2706
 40.1536  8014.17  88.4886
 40.3516  8057.94  88.7459
 40.5496  8134.19  89.4153
 40.7476  8077.26  89.1016
 40.9456  8063.79  88.7887
 41.1436  8158.51  89.031
 41.3416  7979.79  88.3854
 41.5396  7998.12  88.2961
 41.7376  8032.06  88.7397
 41.9356  7925.8  88.0098
 42.1336  8188.38  89.593
 42.3316  7851.6  87.9458
 42.5296  8063.5  88.6345
 42.7276  7971.67  88.3698
 42.9256  7943.15  88.0862
 43.1236  7868.65  87.7701
 43.3216  8003.3  88.2702
 43.5196  7838.74  87.419
 43.7176  7827.86  87.7543
 43.9156  7555.06  86.1327
 44.1136  7671.38  86.3406
 44.3116  7628.85  86.1183
 44.5096  7603.34  86.2825
 44.7076  7650.48  86.4787
 44.9056  7771.47  87.0293
 45.1036  7688.14  86.1826
 45.3016  7654.14  86.4932
 45.4996  7712.31  86.7574
 45.6976  7469.3  85.5648
 45.8956  7562.14  85.9005
 46.0936  7815.58  87.3343
 46.2916  7634.91  86.2898
 46.4896  7588.58  86.0533
 46.6876  7568.55  86.6702
 46.8856  7503.98  85.5531
 47.0836  7551.81  86.0887
 47.2816  7465.38  85.4675
 47.4796  7528.16  85.9375
 47.6776  7524.31  86.8806
 47.8756  7529.27  86.0627
 48.0736  7569.47  86.7619
 48.2716  7395.94  85.5786
 48.4696  7591.23  86.2799
 48.6676  7431.94  85.969
 48.8656  7504.31  86.1079
 49.0636  7588.61  86.5266
 49.2616  7369.55  85.3124
 49.4596  7445.95  85.3096
 49.6576  7413.4  85.3542
 49.8556  7341.24  84.9516
 50.0536  7366.61  85.5546
 50.2516  7337.31  85.5207
 50.4496  7408.7  85.582
 50.6476  7459.16  85.5378
 50.8456  7276.91  84.5695
 51.0436  7164.48  84.379
 51.2416  7137.76  83.8916
 51.4396  6992.59  83.4395
 51.6376  7051.69  83.6076
 51.8356  7119.03  83.6158
 52.0336  7077.95  83.9065
 52.2316  6974.23  83.6489
 52.4296  7072  83.9327
 52.6276  6990.7  83.5579
 52.8256  7193.97  84.3109
 53.0236  7100.49  84.4091
 53.2216  7046.85  84.1297
 53.4196  7050.05  84.0578
 53.6176  7043.47  84.5252
 53.8156  6906.94  83.3636
 54.0136  6670.65  82.0973
 54.2116  6840.73  82.7671
 54.4096  6637.08  81.6038
 54.6076  6642.02  81.9722
 54.8056  6711.85  82.1789
 55.0036  6616.56  82
 55.2016  6734.58  82.2416
 55.3996  6546.45  81.0768
 55.5976  6601.38  81.6227
 55.7956  6599.24  81.3941
 55.9936  6599.36  81.5331
 56.1916  6527.08  81.1308
 56.3896  6394.45  80.2726
 56.5876  6380.31  80.7385
 56.7856  6352.93  80.0645
 56.9836  6444.33  80.4039
 57.1816  6550.47  81.4417
 57.3796  6314.45  79.7779
 57.5776  6344  79.8478
 57.7756  6244.73  79.9042
 57.9736  6314.02  79.997
 58.1716  6190.02  79.477
 58.3696  5982.91  77.8949
 58.5676  6156.95  78.4847
 58.7656  6054.55  78.5087
 58.9636  6044.4  78.4628
 59.1616  6083.33  78.858
 59.3596  6088.06  78.1482
 59.5576  6027.7  77.819
 59.7556  6002.88  78.0756
 59.9536  6041.13  78.2228
 60.1516  6053.19  79.1507
 60.1996  0.0000000E+00  0.0000000E+00