File: docs/examples/XRD/IS17_D/Data/IS17_D/17_Db_f00090.xye
# /beamlines/bl04/projects/cycle2025-II/20250340211-lsimonelli/DATA/IS17_D/17_Db_f00090.xye : mythproc.py merge -s 0.006 -l 0.5 -f /beamlines/bl04/inhouse/ff/FlatField/ff_20Nov2024rod8mm60s_17keV.raw -b True -c true -o xye /beamlines/bl04/projects/cycle2025-II/20250340211-lsimonelli/DATA/IS17_D/17_Db_00090.dat
# IsMon = [6768096, 6767063, 6768323]  IsPos = [-1.5000, -2.4884, -3.4988]
# Wave = 0.4962  CalPath /beamlines/bl04/projects/cycle2025-II/20250340211-lsimonelli/DATA/Align/Si_Pos1_25keV_f00001.cal
# Date = 2025-09-24_18:45:21 Dt = 4.8000  Bin = 0.0060  <imon> = 6767827 +/- 548 (Min/Max) 6767063 / 6768323
# icurr 251.3683  mocoIn 1.7145E-05  mocoOut 0.8049  i15 7.09227e+06  imon 6.76783e+06  i7 5.6667  iEMpd_timer 4.8000  iEMpd_1 3.4393E-08  iEMpd_2 7.8791E-08  iEMpd_3 1.5606E-08  iEMpd_4 4.7360E-08  iEMhp_timer 4.8000  iEMhp_1 4.9097E-06  iEMhp_2 -2.5389E-08  iEMhp_3 -2.2750E-08  iEMhp_4 -2.1096E-08
#      9776
 1.7416  70344.8  265.297
 1.9396  48122.5  219.708
 2.1376  35581.1  188.92
 2.3356  31761.5  178.116
 2.5336  29479.4  172.202
 2.7316  27022  164.993
 2.9296  25839  161.494
 3.1276  25434.1  159.762
 3.3256  24629.4  156.881
 3.5236  26199  161.601
 3.7216  23993  155.903
 3.9196  23628.1  153.902
 4.1176  23512  153.318
 4.3156  24432.1  156.463
 4.5136  26882.5  163.091
 4.7116  28098.6  167.884
 4.9096  27277.4  164.848
 5.1076  27101.1  164.891
 5.3056  26969.6  164.206
 5.5036  27163.4  164.717
 5.7016  27455.9  165.564
 5.8996  28028.8  166.507
 6.0976  28854.5  170.35
 6.2956  28707  169.273
 6.4936  29540.7  170.911
 6.6916  29792.7  172.622
 6.8896  30461.9  174.403
 7.0876  31848.9  178.991
 7.2856  31295.1  176.562
 7.4836  31606.2  176.783
 7.6816  32469.2  179.691
 7.8796  33169.8  181.648
 8.0776  34755.8  186.914
 8.2756  36320.8  189.7
 8.4736  36657.2  190.389
 8.6716  36390.1  190.316
 8.8696  36946.2  192.255
 9.0676  35917.2  188.885
 9.2656  34928.3  186.959
 9.4636  34104  183.21
 9.6616  33443.7  182.159
 9.8596  32841  179.953
 10.0576  30508.6  174.118
 10.2556  30098.8  173.386
 10.4536  29391.9  170.946
 10.6516  28521.5  168.6
 10.8496  27491.8  164.933
 11.0476  26846.7  163.009
 11.2456  25929.8  160.735
 11.4436  26405.6  161.368
 11.6416  25852.3  160.014
 11.8396  24506.3  155.984
 12.0376  24085.8  154.295
 12.2356  23622.5  153.218
 12.4336  23568.7  152.589
 12.6316  23766.2  153.489
 12.8296  23555.6  152.429
 13.0276  24065.1  154.272
 13.2256  24277.8  155.32
 13.4236  24043.6  154.341
 13.6216  24509.8  155.817
 13.8196  26287.2  160.834
 14.0176  23621.8  153.055
 14.2156  23251.2  150.888
 14.4136  22062.5  148.352
 14.6116  21752.2  146.498
 14.8096  20970.9  143.83
 15.0076  20119.8  144.753
 15.2056  19231.6  137.364
 15.4036  18252.2  134.639
 15.6016  17884.4  132.372
 15.7996  17329.2  130.572
 15.9976  17205.9  132.989
 16.1956  16850.7  129.489
 16.3936  16475.5  127.235
 16.5916  16221.4  126.888
 16.7896  16222.1  126.942
 16.9876  16082.3  127.849
 17.1856  15818.1  125.195
 17.3836  15603.9  124.25
 17.5816  15045  122.474
 17.7796  15011.1  122.268
 17.9776  14659.9  121.602
 18.1756  14882.9  121.27
 18.3736  14605.8  120.613
 18.5716  14445.1  119.706
 18.7696  14475  119.397
 18.9676  14202.6  118.062
 19.1656  13784.3  116.894
 19.3636  13892.2  117.547
 19.5616  13624.4  116.573
 19.7596  14045.6  117.761
 19.9576  14265.9  118.721
 20.1556  13912.5  117.763
 20.3536  13498.4  115.395
 20.5516  13157.6  114.358
 20.7496  13109.2  113.994
 20.9476  13000.6  113.374
 21.1456  12991.7  113.664
 21.3436  12819.9  112.854
 21.5416  12684  112.273
 21.7396  12557.6  111.551
 21.9376  12493.1  111.04
 22.1356  12584.8  111.717
 22.3336  12228.9  110.267
 22.5316  12277.4  110.576
 22.7296  12453  110.734
 22.9276  12155.6  110.06
 23.1256  12429.6  110.77
 23.3236  12537.1  111.817
 23.5216  12343.6  110.589
 23.7196  12437.5  111.179
 23.9176  12421.2  110.641
 24.1156  12248.7  110.332
 24.3136  11806  109.123
 24.5116  11948.4  109.284
 24.7096  11702.6  107.984
 24.9076  11350.7  106.375
 25.1056  11102.5  105.656
 25.3036  11010.5  104.745
 25.5016  10878.1  104.145
 25.6996  10870.4  103.7
 25.8976  10891  104.218
 26.0956  10754.6  103.579
 26.2936  10832.5  103.62
 26.4916  10988.3  104.233
 26.6896  10626.1  102.787
 26.8876  10594.2  102.483
 27.0856  10317.6  101.201
 27.2836  10223.1  100.631
 27.4816  10148.7  100.2
 27.6796  10153.8  100.587
 27.8776  10367.9  101.5
 28.0756  9974.86  99.8514
 28.2736  9974.19  99.4272
 28.4716  9788.24  98.5522
 28.6696  9780.69  98.3528
 28.8676  9651.39  98.052
 29.0656  9587.75  97.7033
 29.2636  9650.54  97.8156
 29.4616  9295.15  96.1858
 29.6596  9392.87  96.2609
 29.8576  9160.83  95.7367
 30.0556  9208.03  95.8578
 30.2536  9353.96  96.415
 30.4516  9412.99  96.356
 30.6496  9472.42  96.3788
 30.8476  9352.21  96.2207
 31.0456  9383.39  96.342
 31.2436  9415.86  95.7655
 31.4416  9112.41  94.3946
 31.6396  9373.17  95.7941
 31.8376  9229.88  94.5847
 32.0356  9148.9  94.7297
 32.2336  9205.84  94.4322
 32.4316  8845.85  92.9695
 32.6296  8818.43  92.6533
 32.8276  8831.97  92.5149
 33.0256  8852.79  92.6936
 33.2236  8824.19  92.6865
 33.4216  8813.74  92.321
 33.6196  8712.2  92.0777
 33.8176  8725.43  92.3054
 34.0156  8696.52  91.7823
 34.2136  8660.16  91.6181
 34.4116  8378.05  90.2813
 34.6096  8445.82  90.5233
 34.8076  8426.04  90.8303
 35.0056  8596.94  91.4103
 35.2036  8602.17  91.6666
 35.4016  8222.47  89.536
 35.5996  8257.14  89.7547
 35.7976  8364.4  90.6085
 35.9956  8462.33  90.785
 36.1936  8313.87  89.8444
 36.3916  8191.91  89.3801
 36.5896  8136.93  90.0491
 36.7876  7960.49  88.4761
 36.9856  7805.53  87.6372
 37.1836  7935.81  87.4823
 37.3816  8010.04  88.2483
 37.5796  8041.85  90.1377
 37.7776  8052.08  88.5708
 37.9756  8043.56  88.4077
 38.1736  8080.65  88.8007
 38.3716  7907.4  88.1142
 38.5696  7826.95  88.0398
 38.7676  7940.03  88.1872
 38.9656  7924.61  87.7206
 39.1636  7924.79  87.9943
 39.3616  7855.49  87.5534
 39.5596  7657.65  87.2642
 39.7576  7721.58  87.0216
 39.9556  7844.28  87.3524
 40.1536  7974.6  88.2739
 40.3516  7905.59  87.9009
 40.5496  7892.05  88.0793
 40.7476  7913.31  88.2036
 40.9456  7945.29  88.1327
 41.1436  7950.26  87.8804
 41.3416  7730.73  86.9959
 41.5396  7745.79  86.8895
 41.7376  7723.77  87.0218
 41.9356  7714.12  86.8249
 42.1336  7985.01  88.4831
 42.3316  7732.29  87.2785
 42.5296  7774.44  87.0269
 42.7276  7792.65  87.3718
 42.9256  7660.01  86.4929
 43.1236  7663.72  86.6253
 43.3216  7799.88  87.1332
 43.5196  7565.55  85.8805
 43.7176  7561.2  86.2458
 43.9156  7499.89  85.8185
 44.1136  7492.26  85.329
 44.3116  7529.05  85.5558
 44.5096  7456.23  85.4463
 44.7076  7488.78  85.5615
 44.9056  7555.93  85.8074
 45.1036  7526.07  85.2551
 45.3016  7477.05  85.4878
 45.4996  7507.9  85.5997
 45.6976  7363.6  84.9506
 45.8956  7453.29  85.2826
 46.0936  7539.18  85.517
 46.2916  7451.04  85.2327
 46.4896  7539.93  85.7852
 46.6876  7304.62  85.1472
 46.8856  7349.11  84.6548
 47.0836  7415.73  85.3077
 47.2816  7290.55  84.4632
 47.4796  7368.73  85.0289
 47.6776  7240.58  85.234
 47.8756  7348.17  85.0187
 48.0736  7230.44  84.7871
 48.2716  7205.69  84.459
 48.4696  7384.72  85.0967
 48.6676  7319.81  85.3042
 48.8656  7327.65  85.078
 49.0636  7391.23  85.396
 49.2616  7187.93  84.2481
 49.4596  7293.96  84.4202
 49.6576  7197.38  84.0877
 49.8556  7177.07  83.9981
 50.0536  7223.5  84.7211
 50.2516  7265.98  85.1036
 50.4496  7172.58  84.2108
 50.6476  7193.1  84.0026
 50.8456  7122.72  83.6705
 51.0436  7054.6  83.7333
 51.2416  6928.5  82.6529
 51.4396  6736.16  81.8913
 51.6376  6827.41  82.2752
 51.8356  6879.69  82.2017
 52.0336  6959.36  83.1935
 52.2316  7012.79  83.8759
 52.4296  6884.48  82.8007
 52.6276  6838.82  82.642
 52.8256  6995.53  83.1339
 53.0236  6924.81  83.361
 53.2216  6770.47  82.4434
 53.4196  6952.38  83.4743
 53.6176  6903.89  83.6855
 53.8156  6900.46  83.3309
 54.0136  6510.03  81.1054
 54.2116  6714.6  81.9994
 54.4096  6619.54  81.4987
 54.6076  6472.32  80.9188
 54.8056  6424.34  80.3979
 55.0036  6605.57  81.8017
 55.2016  6481.34  80.6078
 55.3996  6288.83  79.4498
 55.5976  6404.71  80.3772
 55.7956  6421.09  80.2731
 55.9936  6413.58  80.3737
 56.1916  6460.54  80.6949
 56.3896  6147.41  78.7
 56.5876  6210.33  79.6577
 56.7856  6215.85  79.2076
 56.9836  6348.69  79.7996
 57.1816  6350.73  80.1762
 57.3796  6076.32  78.2547
 57.5776  6168.3  78.7288
 57.7756  6104.08  78.9921
 57.9736  6080.94  78.5059
 58.1716  5974.08  78.0764
 58.3696  5881.23  77.2339
 58.5676  5891.75  76.7835
 58.7656  5912.55  77.5853
 58.9636  5880.91  77.405
 59.1616  5875.15  77.4959
 59.3596  5811.79  76.3519
 59.5576  5877.56  76.8384
 59.7556  5868.12  77.1889
 59.9536  6128.15  78.7787
 60.1516  5959.59  78.5309
 60.1996  0.0000000E+00  0.0000000E+00