File: docs/examples/XRD/IS17_D/Data/IS17_D/17_Db_f00029.xye
# /beamlines/bl04/projects/cycle2025-II/20250340211-lsimonelli/DATA/IS17_D/17_Db_f00029.xye : mythproc.py merge -s 0.006 -l 0.5 -f /beamlines/bl04/inhouse/ff/FlatField/ff_20Nov2024rod8mm60s_17keV.raw -b True -c true -o xye /beamlines/bl04/projects/cycle2025-II/20250340211-lsimonelli/DATA/IS17_D/17_Db_00029.dat
# IsMon = [6767926, 6760626, 6764130]  IsPos = [-1.4999, -2.4885, -3.4986]
# Wave = 0.4962  CalPath /beamlines/bl04/projects/cycle2025-II/20250340211-lsimonelli/DATA/Align/Si_Pos1_25keV_f00001.cal
# Date = 2025-09-24_01:45:41 Dt = 4.8000  Bin = 0.0060  <imon> = 6764227 +/- 2981 (Min/Max) 6760626 / 6767926
# icurr 251.1802  mocoIn 1.7135E-05  mocoOut 0.8038  i15 7.08452e+06  imon 6.76423e+06  i7 5.6667  iEMpd_timer 4.8000  iEMpd_1 3.6250E-08  iEMpd_2 7.7613E-08  iEMpd_3 1.7681E-08  iEMpd_4 4.8570E-08  iEMhp_timer 4.8000  iEMhp_1 4.9079E-06  iEMhp_2 -2.4540E-08  iEMhp_3 -2.3389E-08  iEMhp_4 -2.3293E-08
#      9776
 1.7416  70442  265.413
 1.9396  47903.8  219.159
 2.1376  34889.6  187.027
 2.3356  30887.9  175.605
 2.5336  29037.3  170.863
 2.7316  26652.2  163.856
 2.9296  25493  160.409
 3.1276  24805.1  157.758
 3.3256  24206.6  155.533
 3.5236  25997.1  161.106
 3.7216  23759.7  155.14
 3.9196  23079.1  152.113
 4.1176  23170.7  152.191
 4.3156  23941.1  154.881
 4.5136  26523.6  162.01
 4.7116  27635.1  166.49
 4.9096  26964.8  163.892
 5.1076  26695  163.646
 5.3056  26967.8  164.095
 5.5036  26295.4  162.08
 5.7016  26846.6  163.715
 5.8996  27503.1  164.936
 6.0976  28155.1  168.274
 6.2956  28217.5  167.836
 6.4936  29075.9  169.559
 6.6916  29243.3  171.017
 6.8896  30118.4  173.403
 7.0876  30842.9  176.221
 7.2856  30586.7  174.556
 7.4836  30945.3  174.931
 7.6816  31485  176.958
 7.8796  32750  180.51
 8.0776  34040.3  185.004
 8.2756  35432.9  187.385
 8.4736  36218.5  189.269
 8.6716  35191.5  187.186
 8.8696  36058.6  189.909
 9.0676  35255  187.122
 9.2656  34086.4  184.677
 9.4636  33151.3  180.623
 9.6616  32361.4  179.172
 9.8596  31856.5  177.234
 10.0576  29772.3  172.008
 10.2556  29014.3  170.228
 10.4536  28545.6  168.449
 10.6516  27642.7  165.979
 10.8496  26548.7  162.074
 11.0476  25484  158.783
 11.2456  25032  157.935
 11.4436  25122.9  157.404
 11.6416  25168.9  157.89
 11.8396  23956.1  154.217
 12.0376  23302.5  151.754
 12.2356  23076.5  151.461
 12.4336  23095.5  151.038
 12.6316  22988  150.942
 12.8296  23150.7  151.096
 13.0276  23294.2  151.795
 13.2256  23514.2  152.857
 13.4236  23388.4  152.22
 13.6216  23846.5  153.68
 13.8196  25869  159.53
 14.0176  22805.4  150.394
 14.2156  22349.1  147.92
 14.4136  21434  146.219
 14.6116  21056.5  144.133
 14.8096  20316.2  141.562
 15.0076  19473.3  142.405
 15.2056  18611  135.145
 15.4036  17754.1  132.798
 15.6016  17431.6  130.703
 15.7996  16816.6  128.632
 15.9976  16706.4  131.039
 16.1956  16403.5  127.756
 16.3936  16055.2  125.585
 16.5916  15685.8  124.763
 16.7896  15870.6  125.553
 16.9876  15686.4  126.27
 17.1856  15335.9  123.278
 17.3836  15014  121.874
 17.5816  14742.4  121.237
 17.7796  14561.9  120.43
 17.9776  14155.2  119.489
 18.1756  14437.4  119.442
 18.3736  14051.3  118.304
 18.5716  13925.1  117.532
 18.7696  13867.6  116.861
 18.9676  13652.4  115.746
 19.1656  13307.5  114.855
 19.3636  13286.9  114.96
 19.5616  13218.6  114.824
 19.7596  13516.1  115.512
 19.9576  13754.5  116.567
 20.1556  13594.5  116.414
 20.3536  13110.8  113.722
 20.5516  12850.8  113.021
 20.7496  12503.6  111.426
 20.9476  12713.8  112.102
 21.1456  12554  111.738
 21.3436  12358.2  110.801
 21.5416  12357.9  110.819
 21.7396  12148.5  109.722
 21.9376  11914.7  108.441
 22.1356  12086.3  109.227
 22.3336  11994.2  109.194
 22.5316  12068.2  109.642
 22.7296  12127  109.289
 22.9276  11663.3  107.823
 23.1256  11963.3  108.686
 23.3236  12311  110.792
 23.5216  12156.5  109.734
 23.7196  12058.4  109.248
 23.9176  12169.8  109.49
 24.1156  11907.8  108.771
 24.3136  11582.3  108.075
 24.5116  11536.1  107.39
 24.7096  11164.8  105.462
 24.9076  11064.4  105.011
 25.1056  10850  104.203
 25.3036  10583.5  102.696
 25.5016  10662.6  103.109
 25.6996  10639.5  102.59
 25.8976  10628.1  102.946
 26.0956  10542.5  102.554
 26.2936  10537.1  102.201
 26.4916  10741.8  103.04
 26.6896  10382.1  101.596
 26.8876  10360.6  101.347
 27.0856  10134.6  100.273
 27.2836  9954  99.4532
 27.4816  9845.96  98.696
 27.6796  9866.72  99.1505
 27.8776  10095.7  100.145
 28.0756  9726.6  98.6038
 28.2736  9783.46  98.4717
 28.4716  9578.93  97.4906
 28.6696  9550.04  97.1865
 28.8676  9392.19  96.7297
 29.0656  9346.1  96.4664
 29.2636  9399.76  96.4512
 29.4616  8935.19  94.3161
 29.6596  8994.09  94.2086
 29.8576  8768.77  93.6775
 30.0556  8887.79  94.1888
 30.2536  9066.25  94.9331
 30.4516  9124.39  94.8552
 30.6496  9146.92  94.7138
 30.8476  9067.13  94.732
 31.0456  9212.65  95.4502
 31.2436  9164.53  94.4697
 31.4416  8920.72  93.3953
 31.6396  9109.56  94.4254
 31.8376  9038.35  93.5826
 32.0356  8942.17  93.6624
 32.2336  8920.16  92.9471
 32.4316  8612.04  91.7342
 32.6296  8565.88  91.2551
 32.8276  8712.01  91.892
 33.0256  8501  90.8228
 33.2236  8609.82  91.5445
 33.4216  8501.62  90.6686
 33.6196  8383.59  90.32
 33.8176  8499.73  91.1063
 34.0156  8334.55  89.8589
 34.2136  8551.76  91.0372
 34.4116  8241.32  89.5474
 34.6096  8303.17  89.7485
 34.8076  8166.58  89.4213
 35.0056  8200.62  89.2706
 35.2036  8411.3  90.6383
 35.4016  8138.69  89.0839
 35.5996  8055.88  88.6617
 35.7976  8014.13  88.6877
 35.9956  8170.35  89.2034
 36.1936  8175.25  89.0842
 36.3916  8000.06  88.3241
 36.5896  8071.28  90.1436
 36.7876  7649.53  86.7387
 36.9856  7647.04  86.7495
 37.1836  7710.72  86.2437
 37.3816  7720.66  86.6512
 37.5796  7763.01  88.568
 37.7776  7936.23  87.9156
 37.9756  7808.24  87.0905
 38.1736  7980.51  88.2431
 38.3716  7736.32  87.1404
 38.5696  7803.74  87.9028
 38.7676  7614.03  86.3491
 38.9656  7691.95  86.4246
 39.1636  7691.82  86.6696
 39.3616  7763.48  87.0421
 39.5596  7542.39  86.6063
 39.7576  7444.86  85.4485
 39.9556  7632.19  86.1638
 40.1536  7785.7  87.2153
 40.3516  7641.63  86.4985
 40.5496  7677.82  86.6687
 40.7476  7799.52  87.5651
 40.9456  7747.97  87.0303
 41.1436  7716.11  86.5694
 41.3416  7523.27  85.8245
 41.5396  7544.89  85.7562
 41.7376  7671.49  86.7245
 41.9356  7468.22  85.4266
 42.1336  7733.28  87.0684
 42.3316  7533.12  86.1485
 42.5296  7581.24  85.939
 42.7276  7576.44  86.1535
 42.9256  7551.16  85.8821
 43.1236  7466.5  85.5052
 43.3216  7529.79  85.7155
 43.5196  7503.02  85.5192
 43.7176  7450.65  85.6106
 43.9156  7387.04  85.183
 44.1136  7249.73  83.9474
 44.3116  7253.18  83.9782
 44.5096  7337.09  84.772
 44.7076  7332.72  84.6772
 44.9056  7442.81  85.1508
 45.1036  7401.77  84.5399
 45.3016  7298.03  84.4337
 45.4996  7445.37  85.2316
 45.6976  7135.15  83.6189
 45.8956  7290.11  84.345
 46.0936  7383.47  84.8772
 46.2916  7218.49  83.9096
 46.4896  7308.99  84.4565
 46.6876  7221.6  84.6664
 46.8856  7182  83.8123
 47.0836  7266.99  84.4249
 47.2816  7148.01  83.6393
 47.4796  7187.69  83.9685
 47.6776  7001.92  83.8013
 47.8756  7193.94  84.1248
 48.0736  7182.77  84.4839
 48.2716  7035.02  83.4621
 48.4696  7281.21  84.4865
 48.6676  7180.08  84.4951
 48.8656  7216.16  84.4389
 49.0636  7177.44  84.1387
 49.2616  7020.86  83.2731
 49.4596  7125.91  83.446
 49.6576  7083.47  83.4145
 49.8556  7073.42  83.3886
 50.0536  7060.96  83.7611
 50.2516  7031.15  83.693
 50.4496  7037.56  83.4159
 50.6476  7013.2  82.9435
 50.8456  7053.14  83.2719
 51.0436  6915.51  82.9141
 51.2416  6831.23  82.0758
 51.4396  6635.67  81.2949
 51.6376  6799.01  82.1128
 51.8356  6802.31  81.7564
 52.0336  6704.96  81.647
 52.2316  6719.33  82.0928
 52.4296  6700.51  81.6887
 52.6276  6641.23  81.4354
 52.8256  6775.3  81.8051
 53.0236  6779.7  82.4782
 53.2216  6789.67  82.5772
 53.4196  6689.91  81.8847
 53.6176  6725.85  82.5945
 53.8156  6673.76  81.9495
 54.0136  6434.67  80.6367
 54.2116  6580.49  81.1619
 54.4096  6458.28  80.5
 54.6076  6329.82  80.0264
 54.8056  6394.21  80.2045
 55.0036  6277.68  79.8568
 55.2016  6421.84  80.3071
 55.3996  6159.95  78.6393
 55.5976  6234.52  79.3128
 55.7956  6188.75  78.8378
 55.9936  6326.99  79.824
 56.1916  6197.64  79.0551
 56.3896  6080.77  78.2762
 56.5876  6139.17  79.1917
 56.7856  6029.37  78.0101
 56.9836  6213.85  78.9502
 57.1816  6253.36  79.5611
 57.3796  5954.31  77.4448
 57.5776  6133.39  78.5099
 57.7756  5982.21  78.1996
 57.9736  5938.58  77.5921
 58.1716  5893.99  77.5476
 58.3696  5713.6  76.1392
 58.5676  5719.51  75.6579
 58.7656  5825.33  77.0212
 58.9636  5819.09  77.0069
 59.1616  5802.8  77.0205
 59.3596  5867.69  76.7214
 59.5576  5817.35  76.4472
 59.7556  5610.61  75.4796
 59.9536  5706.09  76.0208
 60.1516  5703.07  76.8256
 60.1996  0.0000000E+00  0.0000000E+00