File: docs/examples/XRD/IS17_D/Data/IS17_D/17_Db_f00119.xye
# /beamlines/bl04/projects/cycle2025-II/20250340211-lsimonelli/DATA/IS17_D/17_Db_f00119.xye : mythproc.py merge -s 0.006 -l 0.5 -f /beamlines/bl04/inhouse/ff/FlatField/ff_20Nov2024rod8mm60s_17keV.raw -b True -c true -o xye /beamlines/bl04/projects/cycle2025-II/20250340211-lsimonelli/DATA/IS17_D/17_Db_00119.dat
# IsMon = [6747957, 6750915, 6753741]  IsPos = [-1.4999, -2.4883, -3.4988]
# Wave = 0.4962  CalPath /beamlines/bl04/projects/cycle2025-II/20250340211-lsimonelli/DATA/Align/Si_Pos1_25keV_f00001.cal
# Date = 2025-09-25_02:51:45 Dt = 4.8000  Bin = 0.0060  <imon> = 6750871 +/- 2362 (Min/Max) 6747957 / 6753741
# icurr 249.7663  mocoIn 1.7037E-05  mocoOut 0.7993  i15 7.07575e+06  imon 6.75087e+06  i7 5.6667  iEMpd_timer 4.8000  iEMpd_1 3.4085E-08  iEMpd_2 7.9477E-08  iEMpd_3 1.6936E-08  iEMpd_4 4.8290E-08  iEMhp_timer 4.8000  iEMhp_1 4.8799E-06  iEMhp_2 -2.4618E-08  iEMhp_3 -2.4115E-08  iEMhp_4 -1.9968E-08
#      9776
 1.7416  70232  265.147
 1.9396  48679.7  221.025
 2.1376  35820.9  189.6
 2.3356  31910.7  178.576
 2.5336  30325.7  174.698
 2.7316  27866  167.562
 2.9296  26492.7  163.536
 3.1276  26036.8  161.667
 3.3256  25460.7  159.538
 3.5236  26642.2  162.972
 3.7216  24353.5  157.066
 3.9196  23999.2  155.122
 4.1176  23812.2  154.305
 4.3156  24686.3  157.266
 4.5136  27113.1  163.789
 4.7116  28031.8  167.683
 4.9096  27458.6  165.394
 5.1076  27074.7  164.825
 5.3056  27064  164.496
 5.5036  27003.4  164.233
 5.7016  27689  166.266
 5.8996  27910.8  166.155
 6.0976  28777.2  170.143
 6.2956  28916.7  169.883
 6.4936  29663.9  171.26
 6.6916  30020.2  173.284
 6.8896  30788.5  175.332
 7.0876  31964.2  179.406
 7.2856  31762.5  177.879
 7.4836  32308.7  178.835
 7.6816  33031.4  181.247
 7.8796  33911  183.633
 8.0776  35440  188.724
 8.2756  36938.2  191.278
 8.4736  37641.8  192.906
 8.6716  36770.9  191.294
 8.8696  37700.7  194.214
 9.0676  36816.1  191.251
 9.2656  35951.5  189.685
 9.4636  35245.1  186.245
 9.6616  34092.7  183.907
 9.8596  33798.3  182.576
 10.0576  31460.9  176.834
 10.2556  30792.9  175.397
 10.4536  29539.8  171.381
 10.6516  28906  169.748
 10.8496  27679.4  165.506
 11.0476  27080.6  163.723
 11.2456  26165.6  161.46
 11.4436  26591.3  161.93
 11.6416  26716.4  162.659
 11.8396  25323  158.575
 12.0376  24541.4  155.743
 12.2356  24089.3  154.724
 12.4336  24263.9  154.825
 12.6316  24061.8  154.45
 12.8296  24164.6  154.388
 13.0276  24355.4  155.197
 13.2256  24675.9  156.588
 13.4236  24684.7  156.385
 13.6216  24890.8  157.037
 13.8196  26985.6  162.968
 14.0176  23988  154.23
 14.2156  23655.6  152.19
 14.4136  22428  149.569
 14.6116  22182.5  147.945
 14.8096  21294.8  144.929
 15.0076  20409.3  145.795
 15.2056  19553.6  138.488
 15.4036  18555.2  135.737
 15.6016  18203.1  133.531
 15.7996  17677.1  131.853
 15.9976  17501.6  134.129
 16.1956  17171.5  130.718
 16.3936  16958.9  129.09
 16.5916  16557.1  128.2
 16.7896  16490.3  128
 16.9876  16430.3  129.232
 17.1856  16221.4  126.786
 17.3836  15820.8  125.12
 17.5816  15440.5  124.091
 17.7796  15095.7  122.626
 17.9776  14779.1  122.098
 18.1756  14680.3  120.441
 18.3736  14460.7  120.016
 18.5716  14406.1  119.544
 18.7696  14470.2  119.371
 18.9676  14372.4  118.776
 19.1656  13933.1  117.512
 19.3636  14086.2  118.354
 19.5616  13798.5  117.316
 19.7596  14141.3  118.166
 19.9576  14440.9  119.452
 20.1556  14592.2  120.61
 20.3536  13717.5  116.326
 20.5516  13428.9  115.539
 20.7496  13222.9  114.576
 20.9476  13245.6  114.44
 21.1456  13059.5  113.949
 21.3436  13005.5  113.674
 21.5416  12814.9  112.848
 21.7396  12649.1  111.956
 21.9376  12642.5  111.698
 22.1356  12719  112.163
 22.3336  12488.1  111.419
 22.5316  12388  111.059
 22.7296  12424  110.586
 22.9276  12262.6  110.53
 23.1256  12557.2  111.322
 23.3236  12706.1  112.572
 23.5216  12589.2  111.693
 23.7196  12709.5  112.176
 23.9176  12691.7  111.847
 24.1156  12305.5  110.579
 24.3136  11920.4  109.657
 24.5116  11969.2  109.385
 24.7096  11782.4  108.352
 24.9076  11635.4  107.716
 25.1056  11409.8  107.119
 25.3036  10969.8  104.55
 25.5016  11047.7  104.956
 25.6996  11012.5  104.373
 25.8976  11079.4  105.129
 26.0956  10892.4  104.24
 26.2936  10930.6  104.085
 26.4916  11200.3  105.203
 26.6896  10709.3  103.19
 26.8876  10670.2  102.862
 27.0856  10590  102.528
 27.2836  10357.4  101.348
 27.4816  10279.9  100.847
 27.6796  10404.2  101.823
 27.8776  10488.2  102.092
 28.0756  10087.5  100.405
 28.2736  10101  100.062
 28.4716  9961.35  99.4225
 28.6696  10007.6  99.4871
 28.8676  9802.84  98.8195
 29.0656  9698.35  98.2782
 29.2636  9750.29  98.3248
 29.4616  9515.51  97.3083
 29.6596  9519.78  96.8992
 29.8576  9340.96  96.6607
 30.0556  9346.23  96.5656
 30.2536  9605.94  97.694
 30.4516  9627.43  97.4419
 30.6496  9577.58  96.932
 30.8476  9670.46  97.8441
 31.0456  9454.88  96.7248
 31.2436  9561.11  96.5169
 31.4416  9327.02  95.5163
 31.6396  9306.4  95.4515
 31.8376  9352.3  95.2116
 32.0356  9197.4  94.9747
 32.2336  9321.75  95.0361
 32.4316  9022.55  93.8465
 32.6296  8886.74  93.0188
 32.8276  9022.51  93.5113
 33.0256  8913.7  93.0044
 33.2236  8940.94  93.3048
 33.4216  8925.62  92.897
 33.6196  8837.83  92.7396
 33.8176  8812.07  92.7658
 34.0156  8874.53  92.7254
 34.2136  8769.8  92.1959
 34.4116  8589.88  91.5232
 34.6096  8625.5  91.4799
 34.8076  8616.75  91.8521
 35.0056  8581.57  91.3316
 35.2036  8729.78  92.3429
 35.4016  8402.53  90.5086
 35.5996  8442.21  90.7589
 35.7976  8488.17  91.2753
 35.9956  8671.13  91.8961
 36.1936  8557  91.1388
 36.3916  8337.56  90.1185
 36.5896  8320.6  91.067
 36.7876  8069.56  89.065
 36.9856  7942.38  88.384
 37.1836  8074.35  88.2316
 37.3816  8043.36  88.4221
 37.5796  8031.83  90.08
 37.7776  8212.09  89.4434
 37.9756  8244.92  89.5119
 38.1736  8140.17  89.1279
 38.3716  8135.21  89.3709
 38.5696  7987.97  88.9435
 38.7676  7857.44  87.7355
 38.9656  8025.15  88.2984
 39.1636  7931.84  88.0478
 39.3616  7987.63  88.2896
 39.5596  7781.51  87.9628
 39.7576  7864.63  87.8254
 39.9556  8005.4  88.2387
 40.1536  8049.69  88.6814
 40.3516  8150.87  89.2486
 40.5496  7926.83  88.2745
 40.7476  8055.31  88.9903
 40.9456  8120.34  89.1007
 41.1436  8049.5  88.4344
 41.3416  7882.95  87.8111
 41.5396  7839.46  87.3482
 41.7376  7982  88.4706
 41.9356  7920.74  87.9747
 42.1336  8086.27  89.0381
 42.3316  7866.96  88.0274
 42.5296  7942.03  87.9651
 42.7276  7927.59  88.127
 42.9256  7886.38  87.7719
 43.1236  7772.02  87.2304
 43.3216  7922.81  87.8227
 43.5196  7720.81  86.7495
 43.7176  7758.44  87.3647
 43.9156  7663.45  86.7405
 44.1136  7577.13  85.8036
 44.3116  7625.41  86.087
 44.5096  7550.95  85.9768
 44.7076  7577.41  86.0577
 44.9056  7705.52  86.6573
 45.1036  7688.7  86.1849
 45.3016  7722.43  86.8721
 45.4996  7496.2  85.5298
 45.6976  7539.82  85.9573
 45.8956  7654.98  86.4346
 46.0936  7625.93  86.2169
 46.2916  7551.94  85.8367
 46.4896  7541.85  85.8018
 46.6876  7535.17  86.4901
 46.8856  7624.46  86.2366
 47.0836  7555.7  86.1123
 47.2816  7427.35  85.2471
 47.4796  7504.25  85.7981
 47.6776  7452.23  86.4604
 47.8756  7474.68  85.7486
 48.0736  7424.77  85.9249
 48.2716  7443.93  85.8836
 48.4696  7455.37  85.5247
 48.6676  7495.28  86.325
 48.8656  7508.04  86.1288
 49.0636  7468.2  85.8508
 49.2616  7364.13  85.1607
 49.4596  7359.6  84.9619
 49.6576  7304.21  84.7174
 49.8556  7411.16  85.3545
 50.0536  7419.83  85.8601
 50.2516  7403.56  85.9054
 50.4496  7303.1  84.9704
 50.6476  7259.36  84.3879
 50.8456  7319.61  84.8183
 51.0436  7114.51  84.076
 51.2416  7129.8  83.8339
 51.4396  6950.12  83.1788
 51.6376  6960.46  83.0619
 51.8356  7103.98  83.5244
 52.0336  7018.75  83.5519
 52.2316  6984.01  83.7077
 52.4296  7029.86  83.67
 52.6276  6981.49  83.4955
 52.8256  7049.05  83.4501
 53.0236  7111.2  84.48
 53.2216  7016.61  83.9575
 53.4196  6985.14  83.6586
 53.6176  6953.71  83.9914
 53.8156  6891.57  83.2793
 54.0136  6693.29  82.2446
 54.2116  6866.97  82.9378
 54.4096  6696.66  81.9677
 54.6076  6700.95  82.3382
 54.8056  6465.5  80.6657
 55.0036  6666.73  82.3167
 55.2016  6774.98  82.49
 55.3996  6368.61  79.9582
 55.5976  6538.58  81.2277
 55.7956  6416.71  80.2637
 55.9936  6638.96  81.7626
 56.1916  6369.52  80.1334
 56.3896  6283.59  79.5703
 56.5876  6347.3  80.5457
 56.7856  6328.06  79.9135
 56.9836  6465.32  80.5279
 57.1816  6503.87  81.1602
 57.3796  6251.27  79.3664
 57.5776  6316.69  79.6641
 57.7756  6221.4  79.7501
 57.9736  6138.9  78.8729
 58.1716  6230.55  79.7315
 58.3696  5967.68  77.7923
 58.5676  6106.52  78.1597
 58.7656  5999.99  78.1482
 58.9636  6118.98  78.9468
 59.1616  6038.2  78.5592
 59.3596  6002.14  77.5782
 59.5576  5857.58  76.6942
 59.7556  6021.59  78.178
 59.9536  6008.55  77.9925
 60.1516  5902.43  78.1397
 60.1996  0.0000000E+00  0.0000000E+00