File: docs/examples/XRD/IS17_D/Data/IS17_D/17_Db_f00080.xye
# /beamlines/bl04/projects/cycle2025-II/20250340211-lsimonelli/DATA/IS17_D/17_Db_f00080.xye : mythproc.py merge -s 0.006 -l 0.5 -f /beamlines/bl04/inhouse/ff/FlatField/ff_20Nov2024rod8mm60s_17keV.raw -b True -c true -o xye /beamlines/bl04/projects/cycle2025-II/20250340211-lsimonelli/DATA/IS17_D/17_Db_00080.dat
# IsMon = [6785835, 6789266, 6784189]  IsPos = [-1.4999, -2.4884, -3.4988]
# Wave = 0.4962  CalPath /beamlines/bl04/projects/cycle2025-II/20250340211-lsimonelli/DATA/Align/Si_Pos1_25keV_f00001.cal
# Date = 2025-09-24_15:59:32 Dt = 4.8000  Bin = 0.0060  <imon> = 6786430 +/- 2115 (Min/Max) 6784189 / 6789266
# icurr 252.7717  mocoIn 1.7236E-05  mocoOut 0.8085  i15 7.10539e+06  imon 6.78643e+06  i7 5.0000  iEMpd_timer 4.8000  iEMpd_1 3.1962E-08  iEMpd_2 7.8511E-08  iEMpd_3 1.6440E-08  iEMpd_4 4.7916E-08  iEMhp_timer 4.8000  iEMhp_1 4.9354E-06  iEMhp_2 -2.4180E-08  iEMhp_3 -2.3993E-08  iEMhp_4 -2.0267E-08
#      9776
 1.7416  69867  264.411
 1.9396  47801.9  218.994
 2.1376  35186.4  187.88
 2.3356  31490.2  177.365
 2.5336  30232.8  174.4
 2.7316  27069.6  165.122
 2.9296  25565.8  160.627
 3.1276  25116.8  158.755
 3.3256  24487  156.401
 3.5236  25988.1  160.925
 3.7216  23805.5  155.284
 3.9196  23548.5  153.645
 4.1176  23239.8  152.433
 4.3156  24329.1  156.14
 4.5136  27157.1  163.915
 4.7116  27902.7  167.302
 4.9096  27031  164.096
 5.1076  26896.6  164.278
 5.3056  26823.7  163.787
 5.5036  26621.2  163.055
 5.7016  27058.2  164.36
 5.8996  27732.4  165.623
 6.0976  28489.9  169.281
 6.2956  28510.8  168.694
 6.4936  29145.1  169.758
 6.6916  29625.3  172.14
 6.8896  30414.3  174.266
 7.0876  31440.6  177.928
 7.2856  31162.4  176.187
 7.4836  31816.4  177.376
 7.6816  32486.8  179.739
 7.8796  33438.7  182.364
 8.0776  36006.8  190.243
 8.2756  37019.3  191.524
 8.4736  37118.6  191.577
 8.6716  36614.8  190.885
 8.8696  37720.2  194.284
 9.0676  36724.2  191.031
 9.2656  35208  187.739
 9.4636  34315  183.807
 9.6616  33566.4  182.514
 9.8596  33077.2  180.595
 10.0576  31143.9  175.9
 10.2556  30209.3  173.694
 10.4536  32143.8  178.755
 10.6516  32867.8  180.974
 10.8496  27697.5  165.562
 11.0476  26996.2  163.456
 11.2456  28447.2  168.349
 11.4436  26700  162.271
 11.6416  25730.1  159.634
 11.8396  24796.1  156.92
 12.0376  24264.3  154.874
 12.2356  24984  157.56
 12.4336  24160.1  154.492
 12.6316  23677.9  153.211
 12.8296  23942.1  153.672
 13.0276  24166.6  154.6
 13.2256  24305.7  155.407
 13.4236  24278.6  155.089
 13.6216  24492.6  155.773
 13.8196  27057.1  163.186
 14.0176  23621.6  153.051
 14.2156  23306.7  151.062
 14.4136  22251  148.983
 14.6116  21841.4  146.795
 14.8096  20973.3  143.847
 15.0076  20295.2  145.374
 15.2056  19338.8  137.74
 15.4036  18485  135.491
 15.6016  18047.1  132.969
 15.7996  17729.1  132.068
 15.9976  17251.9  133.157
 16.1956  17104.1  130.485
 16.3936  16741.1  128.27
 16.5916  16582.4  128.31
 16.7896  16353.5  127.481
 16.9876  16203.7  128.334
 17.1856  16134.3  126.422
 17.3836  15496.7  123.81
 17.5816  15424.4  123.998
 17.7796  15212.9  123.075
 17.9776  15307.1  124.264
 18.1756  15393.5  123.331
 18.3736  15594.5  124.62
 18.5716  14621.4  120.434
 18.7696  14407.6  119.112
 18.9676  14262.8  118.31
 19.1656  13883.8  117.32
 19.3636  14034  118.137
 19.5616  13907.3  117.771
 19.7596  14092.6  117.96
 19.9576  14525.2  119.805
 20.1556  13725  116.968
 20.3536  13492  115.359
 20.5516  13446.4  115.604
 20.7496  13110.6  114.095
 20.9476  13264.7  114.522
 21.1456  13379.9  115.349
 21.3436  12876.6  113.107
 21.5416  12822.5  112.883
 21.7396  12526.2  111.415
 21.9376  12647.5  111.731
 22.1356  12756.1  112.318
 22.3336  12396.8  111.009
 22.5316  12487.6  111.514
 22.7296  12305.2  110.07
 22.9276  12283.8  110.636
 23.1256  12528.9  111.222
 23.3236  12667.3  112.409
 23.5216  12562.4  111.578
 23.7196  12500.9  111.258
 23.9176  12534.7  111.161
 24.1156  12143.3  109.859
 24.3136  11968.5  109.85
 24.5116  12103.9  109.998
 24.7096  11876  108.769
 24.9076  11565.5  107.371
 25.1056  11255.5  106.381
 25.3036  11142.8  105.361
 25.5016  11134.4  105.364
 25.6996  11067.8  104.632
 25.8976  11207.8  105.731
 26.0956  10966.7  104.603
 26.2936  10881.7  103.845
 26.4916  11125.5  104.856
 26.6896  10843.5  103.835
 26.8876  10630.6  102.672
 27.0856  10514.3  102.166
 27.2836  10436.7  101.674
 27.4816  10363.9  101.256
 27.6796  10154  100.576
 27.8776  10594.7  102.606
 28.0756  10170.7  100.823
 28.2736  10195.7  100.529
 28.4716  9918.48  99.2035
 28.6696  9956.79  99.2374
 28.8676  9832.15  98.9713
 29.0656  9709.36  98.3239
 29.2636  9733.94  98.2402
 29.4616  9477.84  97.1229
 29.6596  9427.11  96.4342
 29.8576  9321.57  96.5694
 30.0556  9278.65  96.2318
 30.2536  9420.01  96.7505
 30.4516  9759.73  98.1227
 30.6496  9624.95  97.177
 30.8476  9529.49  97.1412
 31.0456  9577.57  97.3495
 31.2436  9554.57  96.4888
 31.4416  9298.58  95.3552
 31.6396  9586.8  96.8689
 31.8376  9475.97  95.7999
 32.0356  9356.23  95.7815
 32.2336  9277.4  94.7955
 32.4316  8982.93  93.6774
 32.6296  8920.2  93.1881
 32.8276  9069.16  93.7513
 33.0256  8868.25  92.7693
 33.2236  8982.8  93.5132
 33.4216  8914.9  92.8475
 33.6196  8830.49  92.6927
 33.8176  8810.43  92.7542
 34.0156  8740.88  92.0208
 34.2136  8798.8  92.3577
 34.4116  8540.8  91.1509
 34.6096  8644.65  91.5816
 34.8076  8417.49  90.7846
 35.0056  8539.06  91.0983
 35.2036  8731.18  92.3543
 35.4016  8441.33  90.7183
 35.5996  8385.16  90.4501
 35.7976  8403.55  90.8286
 35.9956  8517.21  91.0787
 36.1936  8483.79  90.7657
 36.3916  8340.24  90.1792
 36.5896  8362.64  91.2903
 36.7876  8080.99  89.1364
 36.9856  8132.77  89.4494
 37.1836  7916.15  87.3713
 37.3816  8019.33  88.3064
 37.5796  8136.17  90.6649
 37.7776  8131.28  89.014
 37.9756  8335.59  89.995
 38.1736  8365.02  90.3656
 38.3716  8148.19  89.4611
 38.5696  8055.3  89.314
 38.7676  7991.47  88.4633
 38.9656  7925.02  87.7229
 39.1636  8083.46  88.8681
 39.3616  8035.1  88.5342
 39.5596  7813.96  88.1401
 39.7576  7814.2  87.542
 39.9556  8018.61  88.3091
 40.1536  8006.85  88.4538
 40.3516  8005.15  88.4518
 40.5496  7981.28  88.5715
 40.7476  7965.91  88.4987
 40.9456  8055.38  88.7443
 41.1436  8025.41  88.2983
 41.3416  7905.98  87.9719
 41.5396  7928.06  87.9067
 41.7376  7951.39  88.2955
 41.9356  7887.13  87.7934
 42.1336  8108.21  89.1596
 42.3316  7791.24  87.6044
 42.5296  7907.91  87.7802
 42.7276  7929.15  88.1344
 42.9256  7862.2  87.6343
 43.1236  7903.7  87.9708
 43.3216  7982.88  88.1593
 43.5196  7802.45  87.2076
 43.7176  7745.44  87.2958
 43.9156  7610.84  86.4481
 44.1136  7500.75  85.3773
 44.3116  7582.21  85.8592
 44.5096  7547.62  85.9655
 44.7076  7616.93  86.2864
 44.9056  7831.18  87.3641
 45.1036  7736.34  86.4574
 45.3016  7594.41  86.1587
 45.4996  7648.19  86.4093
 45.6976  7423.94  85.3123
 45.8956  7533.75  85.7364
 46.0936  7701.77  86.6957
 46.2916  7586.89  86.0153
 46.4896  7494.47  85.5158
 46.6876  7452.28  85.9953
 46.8856  7439.49  85.1913
 47.0836  7437.25  85.4282
 47.2816  7344.87  84.7701
 47.4796  7379.21  85.0794
 47.6776  7339.34  85.8084
 47.8756  7458.12  85.648
 48.0736  7451.58  86.0793
 48.2716  7360.74  85.3696
 48.4696  7381.91  85.076
 48.6676  7381.73  85.6751
 48.8656  7316.28  85.0205
 49.0636  7443.04  85.6929
 49.2616  7291.11  84.8567
 49.4596  7296.92  84.4461
 49.6576  7258.04  84.4511
 49.8556  7307.09  84.7551
 50.0536  7283.02  85.0716
 50.2516  7323.29  85.4454
 50.4496  7212.16  84.4369
 50.6476  7318.21  84.727
 50.8456  7262.09  84.482
 51.0436  7099.58  83.995
 51.2416  6998.34  83.072
 51.4396  6830.21  82.4649
 51.6376  7087.97  83.8175
 51.8356  7068.79  83.3236
 52.0336  6939.19  83.0862
 52.2316  7050.89  84.1131
 52.4296  6951.44  83.2215
 52.6276  6966.71  83.414
 52.8256  7028.01  83.3386
 53.0236  7066.24  84.1982
 53.2216  7007.04  83.8843
 53.4196  6860.82  82.9205
 53.6176  6960.54  84.0178
 53.8156  6854.98  83.0445
 54.0136  6654.72  82.0079
 54.2116  6787.94  82.4546
 54.4096  6600.27  81.3666
 54.6076  6575.8  81.5745
 54.8056  6471.54  80.6946
 55.0036  6564.3  81.6856
 55.2016  6644.24  81.6806
 55.3996  6396.66  80.1422
 55.5976  6432.13  80.5621
 55.7956  6395.01  80.1374
 55.9936  6552.63  81.2431
 56.1916  6360.89  80.0857
 56.3896  6292  79.6214
 56.5876  6309.14  80.2952
 56.7856  6288.7  79.6539
 56.9836  6384.2  80.0397
 57.1816  6472.43  80.9302
 57.3796  6272.09  79.5026
 57.5776  6276.61  79.4236
 57.7756  6093.1  78.9123
 57.9736  6162.21  79.0231
 58.1716  6106.57  78.9438
 58.3696  5965.25  77.7739
 58.5676  5982.85  77.357
 58.7656  6026.42  78.3266
 58.9636  5928.35  77.7094
 59.1616  5925.24  77.8253
 59.3596  6078.39  78.0992
 59.5576  5977.52  77.5046
 59.7556  6014.32  78.1603
 59.9536  5907.41  77.3625
 60.1516  5892.4  78.1027
 60.1996  0.0000000E+00  0.0000000E+00