File: docs/examples/XRD/IS17_D/Data/IS17_D/17_Db_f00051.xye
# /beamlines/bl04/projects/cycle2025-II/20250340211-lsimonelli/DATA/IS17_D/17_Db_f00051.xye : mythproc.py merge -s 0.006 -l 0.5 -f /beamlines/bl04/inhouse/ff/FlatField/ff_20Nov2024rod8mm60s_17keV.raw -b True -c true -o xye /beamlines/bl04/projects/cycle2025-II/20250340211-lsimonelli/DATA/IS17_D/17_Db_00051.dat
# IsMon = [6749259, 6748174, 6749726]  IsPos = [-1.4999, -2.4885, -3.4988]
# Wave = 0.4962  CalPath /beamlines/bl04/projects/cycle2025-II/20250340211-lsimonelli/DATA/Align/Si_Pos1_25keV_f00001.cal
# Date = 2025-09-24_07:54:11 Dt = 4.8000  Bin = 0.0060  <imon> = 6749053 +/- 650 (Min/Max) 6748174 / 6749726
# icurr 249.2259  mocoIn 1.7009E-05  mocoOut 0.7981  i15 7.06922e+06  imon 6.74905e+06  i7 3.3333  iEMpd_timer 4.8000  iEMpd_1 3.5093E-08  iEMpd_2 7.8526E-08  iEMpd_3 1.6997E-08  iEMpd_4 4.6928E-08  iEMhp_timer 4.8000  iEMhp_1 4.8710E-06  iEMhp_2 -2.5414E-08  iEMhp_3 -2.3558E-08  iEMhp_4 -2.1866E-08
#      9776
 1.7416  70704.3  265.975
 1.9396  48889.3  221.454
 2.1376  36116.1  190.336
 2.3356  32237.3  179.446
 2.5336  30302.8  174.591
 2.7316  27763.8  167.244
 2.9296  26661.2  164.05
 3.1276  26098.5  161.834
 3.3256  25233.7  158.8
 3.5236  26765.3  163.49
 3.7216  24658.1  158.047
 3.9196  23956.5  154.979
 4.1176  23793.4  154.237
 4.3156  24775.3  157.558
 4.5136  27046.5  163.591
 4.7116  27998  167.585
 4.9096  27569.4  165.725
 5.1076  27283.8  165.448
 5.3056  27292.3  165.197
 5.5036  26875.7  163.927
 5.7016  27054  164.346
 5.8996  27504.6  164.94
 6.0976  28733  169.996
 6.2956  28851.1  169.699
 6.4936  29370.8  170.417
 6.6916  29945.9  173.072
 6.8896  31008.6  175.958
 7.0876  31823.6  179.004
 7.2856  31692.1  177.676
 7.4836  31983.1  177.839
 7.6816  32967.2  181.073
 7.8796  33965.6  183.806
 8.0776  35312.7  188.406
 8.2756  36638.4  190.526
 8.4736  37571.3  192.747
 8.6716  36846.7  191.507
 8.8696  37584.8  193.908
 9.0676  36553  190.546
 9.2656  35544.6  188.606
 9.4636  34551  184.408
 9.6616  33944.7  183.512
 9.8596  33334.2  181.315
 10.0576  30939.1  175.342
 10.2556  30069.7  173.308
 10.4536  29311.9  170.712
 10.6516  28381.9  168.188
 10.8496  27282.9  164.312
 11.0476  26407.5  161.625
 11.2456  25736.3  160.138
 11.4436  25939.9  159.944
 11.6416  26968.7  163.431
 11.8396  24975.6  157.48
 12.0376  24391.6  155.258
 12.2356  24063.8  154.671
 12.4336  23903.6  153.674
 12.6316  23871.3  153.824
 12.8296  24015.7  153.914
 13.0276  24347.3  155.173
 13.2256  24734.6  156.775
 13.4236  24454.7  155.656
 13.6216  24852.5  156.905
 13.8196  26861.4  162.584
 14.0176  23789.3  153.596
 14.2156  23353.4  151.213
 14.4136  22379.2  149.411
 14.6116  21988.1  147.294
 14.8096  21193.3  144.582
 15.0076  20270.7  145.297
 15.2056  19353.7  137.797
 15.4036  18441  135.323
 15.6016  18161.5  133.394
 15.7996  17667.5  131.829
 15.9976  17385.7  133.694
 16.1956  17005.4  130.067
 16.3936  16601.1  127.719
 16.5916  16156.3  126.637
 16.7896  16398.2  127.629
 16.9876  16334  128.852
 17.1856  16070.2  126.188
 17.3836  15618.7  124.306
 17.5816  15258.8  123.342
 17.7796  14969.4  122.106
 17.9776  14437  120.672
 18.1756  14512.5  119.749
 18.3736  14425.8  119.874
 18.5716  14209.3  118.724
 18.7696  14112.2  117.874
 18.9676  14057.8  117.446
 19.1656  13731  116.666
 19.3636  13766  117.011
 19.5616  13734.8  117.047
 19.7596  13887.4  117.095
 19.9576  14157.7  118.277
 20.1556  14871.4  121.757
 20.3536  13956.2  117.332
 20.5516  13445.8  115.608
 20.7496  13171.9  114.364
 20.9476  13177.1  114.142
 21.1456  12963.8  113.537
 21.3436  12919.9  113.296
 21.5416  12685.8  112.277
 21.7396  12741.8  112.368
 21.9376  12596.3  111.497
 22.1356  12657.7  111.892
 22.3336  12366.1  110.864
 22.5316  12334.3  110.829
 22.7296  12311.9  110.1
 22.9276  12254.9  110.509
 23.1256  12490  111.045
 23.3236  12937.7  113.589
 23.5216  12488.6  111.23
 23.7196  12427.6  110.921
 23.9176  12552.5  111.22
 24.1156  12199.6  110.114
 24.3136  11923.4  109.654
 24.5116  11974  109.409
 24.7096  11528.9  107.173
 24.9076  11515.8  107.149
 25.1056  11231  106.011
 25.3036  11013.5  104.757
 25.5016  10980.1  104.637
 25.6996  10988.4  104.259
 25.8976  10942.3  104.464
 26.0956  10793.5  103.769
 26.2936  10855.6  103.731
 26.4916  11066  104.575
 26.6896  10758.7  103.431
 26.8876  10682.1  102.916
 27.0856  10504.3  102.072
 27.2836  10452.4  101.757
 27.4816  10264.6  100.774
 27.6796  10114.5  100.392
 27.8776  10411.2  101.713
 28.0756  10035.9  100.154
 28.2736  10003.5  99.5782
 28.4716  9894.31  99.0794
 28.6696  9816.73  98.533
 28.8676  9891.68  99.2683
 29.0656  9743.79  98.4978
 29.2636  9772.93  98.357
 29.4616  9251.91  95.9617
 29.6596  9451.68  96.5595
 29.8576  9351.21  96.7262
 30.0556  9233.57  95.9968
 30.2536  9371.57  96.5053
 30.4516  9343.11  96.0002
 30.6496  9490.78  96.4869
 30.8476  9438.7  96.6658
 31.0456  9393.3  96.3898
 31.2436  9492.43  96.1627
 31.4416  9196.96  94.844
 31.6396  9347.24  95.6609
 31.8376  9223.36  94.5174
 32.0356  9259.25  95.3074
 32.2336  9216.99  94.4887
 32.4316  8942.85  93.4753
 32.6296  8917.82  93.1149
 32.8276  8890.63  92.8259
 33.0256  8864.49  92.7546
 33.2236  8913.57  93.1422
 33.4216  8796.19  92.2234
 33.6196  8844.08  92.7732
 33.8176  8795.1  92.6692
 34.0156  8669.44  91.6455
 34.2136  8821.26  92.4612
 34.4116  8500.61  90.9369
 34.6096  8492.23  90.7676
 34.8076  8467.73  91.0541
 35.0056  8514.02  90.9651
 35.2036  8727.22  92.3335
 35.4016  8443.6  90.731
 35.5996  8483.76  90.9834
 35.7976  8325.66  90.4031
 35.9956  8582.08  91.4276
 36.1936  8435.61  90.5007
 36.3916  8288.03  89.9008
 36.5896  8220.62  90.9781
 36.7876  8169.4  89.6256
 36.9856  8004.11  88.7451
 37.1836  7842.88  86.9675
 37.3816  7967.23  88.0131
 37.5796  7976.36  89.7701
 37.7776  8151.12  89.1149
 37.9756  8130.66  88.8851
 38.1736  8198.85  89.4504
 38.3716  8072.8  89.0303
 38.5696  7894.15  88.4034
 38.7676  7894.67  87.9354
 38.9656  7943.81  87.8231
 39.1636  7877.56  87.7054
 39.3616  7944.8  88.0464
 39.5596  7711.56  87.5621
 39.7576  7820.12  87.577
 39.9556  7729.01  86.7003
 40.1536  7945.54  88.1106
 40.3516  7935.57  88.0717
 40.5496  7916.69  88.0059
 40.7476  8004.22  88.7048
 40.9456  8133.51  89.17
 41.1436  8023.79  88.2905
 41.3416  7817.87  87.4831
 41.5396  7854.45  87.4948
 41.7376  7849.67  87.7315
 41.9356  7770.86  87.1468
 42.1336  7975.1  88.4245
 42.3316  7735.55  87.2902
 42.5296  7888.03  87.6602
 42.7276  7829.16  87.5807
 42.9256  7831.92  87.4612
 43.1236  7752.04  87.1226
 43.3216  7772.12  87.0829
 43.5196  7747.39  86.9065
 43.7176  7717.53  87.1289
 43.9156  7567.85  86.205
 44.1136  7563.93  85.7386
 44.3116  7652.39  86.2502
 44.5096  7612.55  86.3378
 44.7076  7521.26  85.745
 44.9056  7647.75  86.3273
 45.1036  7653.47  85.9817
 45.3016  7607.65  86.2229
 45.4996  7616.95  86.2189
 45.6976  7467.34  85.5456
 45.8956  7534.17  85.7442
 46.0936  7537.23  85.7632
 46.2916  7540.13  85.7552
 46.4896  7494.59  85.5398
 46.6876  7508.18  86.3288
 46.8856  7425.54  85.1118
 47.0836  7387.37  85.1417
 47.2816  7306.77  84.5566
 47.4796  7456.62  85.5316
 47.6776  7328.41  85.7452
 47.8756  7418.2  85.4262
 48.0736  7413.66  85.8638
 48.2716  7259.64  84.7829
 48.4696  7377.06  85.0492
 48.6676  7407.95  85.8312
 48.8656  7487.46  86.0107
 49.0636  7408.37  85.4973
 49.2616  7243.8  84.5791
 49.4596  7336.79  84.6753
 49.6576  7307.23  84.7346
 49.8556  7302.01  84.7235
 50.0536  7302.65  85.1801
 50.2516  7232.36  84.8823
 50.4496  7282.4  84.8498
 50.6476  7305.43  84.6566
 50.8456  7305.6  84.7425
 51.0436  7072.72  83.8403
 51.2416  7093.99  83.6306
 51.4396  6979.01  83.3606
 51.6376  6994.99  83.2783
 51.8356  7020.06  83.0458
 52.0336  6922.06  82.9689
 52.2316  7006.29  83.8421
 52.4296  6916.96  82.9966
 52.6276  7016.24  83.7051
 52.8256  7016.61  83.2582
 53.0236  7136.61  84.6148
 53.2216  7036.05  84.0597
 53.4196  6938.23  83.386
 53.6176  6953.7  83.9731
 53.8156  6885.23  83.2367
 54.0136  6618.47  81.7723
 54.2116  6848.18  82.8161
 54.4096  6689.88  81.9236
 54.6076  6544.93  81.3773
 54.8056  6531.05  81.0609
 55.0036  6663.79  82.2946
 55.2016  6660.92  81.7774
 55.3996  6363.25  79.9303
 55.5976  6537.69  81.2204
 55.7956  6497.2  80.7669
 55.9936  6603.81  81.573
 56.1916  6413.81  80.4155
 56.3896  6282.87  79.5779
 56.5876  6333.24  80.4475
 56.7856  6293.01  79.6884
 56.9836  6371.79  79.9524
 57.1816  6481.37  81.0149
 57.3796  6285.47  79.5883
 57.5776  6322.13  79.7064
 57.7756  6227.17  79.7967
 57.9736  6161.76  79.0303
 58.1716  6189.38  79.4645
 58.3696  5955.13  77.7199
 58.5676  6028.86  77.6582
 58.7656  6001.8  78.1645
 58.9636  5925.28  77.6992
 59.1616  6046.53  78.6188
 59.3596  6076.19  78.0676
 59.5576  6106.33  78.3184
 59.7556  5924.09  77.5551
 59.9536  6013.47  78.0371
 60.1516  5949.77  78.4651
 60.1996  0.0000000E+00  0.0000000E+00