File: docs/examples/XRD/IS17_D/Data/IS17_D/17_Db_f00043.xye
# /beamlines/bl04/projects/cycle2025-II/20250340211-lsimonelli/DATA/IS17_D/17_Db_f00043.xye : mythproc.py merge -s 0.006 -l 0.5 -f /beamlines/bl04/inhouse/ff/FlatField/ff_20Nov2024rod8mm60s_17keV.raw -b True -c true -o xye /beamlines/bl04/projects/cycle2025-II/20250340211-lsimonelli/DATA/IS17_D/17_Db_00043.dat
# IsMon = [6787736, 6788896, 6786174]  IsPos = [-1.4999, -2.4884, -3.4986]
# Wave = 0.4962  CalPath /beamlines/bl04/projects/cycle2025-II/20250340211-lsimonelli/DATA/Align/Si_Pos1_25keV_f00001.cal
# Date = 2025-09-24_05:39:35 Dt = 4.8000  Bin = 0.0060  <imon> = 6787602 +/- 1115 (Min/Max) 6786174 / 6788896
# icurr 252.6308  mocoIn 1.7236E-05  mocoOut 0.8090  i15 7.1051e+06  imon 6.7876e+06  i7 4.3333  iEMpd_timer 4.8000  iEMpd_1 3.4947E-08  iEMpd_2 7.7700E-08  iEMpd_3 1.5400E-08  iEMpd_4 4.7770E-08  iEMhp_timer 4.8000  iEMhp_1 4.9358E-06  iEMhp_2 -2.4645E-08  iEMhp_3 -2.3219E-08  iEMhp_4 -2.0135E-08
#      9776
 1.7416  71898.3  268.213
 1.9396  49968.1  223.889
 2.1376  37236.6  193.266
 2.3356  33259.8  182.271
 2.5336  31317.1  177.49
 2.7316  28848.5  170.466
 2.9296  27458.9  166.471
 3.1276  26891.8  164.268
 3.3256  25733.7  160.346
 3.5236  27324.4  165.023
 3.7216  24662.7  158.062
 3.9196  24344.3  156.222
 4.1176  24251.9  155.71
 4.3156  25132.8  158.694
 4.5136  27324.2  164.423
 4.7116  28444.2  168.916
 4.9096  27827.2  166.492
 5.1076  27207.5  165.217
 5.3056  27497.3  165.699
 5.5036  27010.2  164.215
 5.7016  27299.6  165.087
 5.8996  27869.9  166.033
 6.0976  28684.3  169.856
 6.2956  29034.6  170.239
 6.4936  29700.4  171.364
 6.6916  30156.7  173.67
 6.8896  31016.2  175.987
 7.0876  31989.3  179.47
 7.2856  31909.5  178.289
 7.4836  32274.2  178.652
 7.6816  32965.5  181.071
 7.8796  33712.7  183.119
 8.0776  35223.1  188.166
 8.2756  36824.7  191.015
 8.4736  37584.9  192.781
 8.6716  36788.9  191.346
 8.8696  37303.2  193.196
 9.0676  36654.6  190.832
 9.2656  35671.9  188.957
 9.4636  34410.3  184.05
 9.6616  33759.9  183.028
 9.8596  33036.2  180.481
 10.0576  31054.2  175.649
 10.2556  30068.5  173.29
 10.4536  29098  170.07
 10.6516  28054  167.2
 10.8496  27003.9  163.471
 11.0476  26415.6  161.696
 11.2456  25329.9  158.859
 11.4436  25361.8  158.148
 11.6416  27059  163.701
 11.8396  25011.3  157.591
 12.0376  24292.4  154.968
 12.2356  23959  154.302
 12.4336  23830.6  153.432
 12.6316  23797.5  153.592
 12.8296  23764.2  153.098
 13.0276  24124.7  154.466
 13.2256  24610.7  156.38
 13.4236  24595.3  156.104
 13.6216  24780.4  156.679
 13.8196  26864.8  162.598
 14.0176  23713.4  153.348
 14.2156  23474.9  151.599
 14.4136  22280.5  149.078
 14.6116  22013.1  147.378
 14.8096  21187.5  144.574
 15.0076  20460  145.966
 15.2056  19409.1  137.996
 15.4036  18509.9  135.58
 15.6016  18077.7  133.085
 15.7996  17646.4  131.765
 15.9976  17258.8  133.17
 16.1956  17075  130.372
 16.3936  16593.1  127.701
 16.5916  16356.8  127.427
 16.7896  16221.4  126.958
 16.9876  16116.6  127.991
 17.1856  16022.4  125.984
 17.3836  15806.3  125.041
 17.5816  15017.7  122.355
 17.7796  14936.9  121.96
 17.9776  14496.3  120.922
 18.1756  14523.6  119.796
 18.3736  14156.5  118.748
 18.5716  14070.7  118.149
 18.7696  14042.5  117.596
 18.9676  13948.6  116.997
 19.1656  13589.6  116.069
 19.3636  13615.7  116.368
 19.5616  13536.7  116.196
 19.7596  13801.7  116.734
 19.9576  13872.3  117.076
 20.1556  14509.8  120.271
 20.3536  14368.4  119.057
 20.5516  13643.2  116.458
 20.7496  13070.7  113.924
 20.9476  12986.5  113.313
 21.1456  13032.5  113.841
 21.3436  12798.9  112.769
 21.5416  12718.8  112.427
 21.7396  12483.6  111.216
 21.9376  12558.7  111.335
 22.1356  12508.4  111.113
 22.3336  12352.2  110.816
 22.5316  12416.4  111.199
 22.7296  12429  110.624
 22.9276  12147  110.021
 23.1256  12317.7  110.282
 23.3236  12741.6  112.733
 23.5216  12492  111.257
 23.7196  12474  111.136
 23.9176  12554.5  111.24
 24.1156  12217.8  110.202
 24.3136  11878.5  109.451
 24.5116  11962.7  109.35
 24.7096  11670.6  107.823
 24.9076  11507.3  107.104
 25.1056  11201.5  106.128
 25.3036  10921.9  104.312
 25.5016  10857.6  104.047
 25.6996  10836.9  103.537
 25.8976  10938.8  104.454
 26.0956  10803.5  103.825
 26.2936  10806.2  103.487
 26.4916  11141.5  104.951
 26.6896  10814.2  103.694
 26.8876  10565.2  102.347
 27.0856  10401.5  101.633
 27.2836  10238.9  100.87
 27.4816  10162  100.268
 27.6796  10314.4  101.385
 27.8776  10319  101.251
 28.0756  9977.32  99.8611
 28.2736  9974.63  99.4281
 28.4716  9785.22  98.5375
 28.6696  9819.34  98.5496
 28.8676  9700.36  98.3035
 29.0656  9667.85  98.1129
 29.2636  9765.01  98.3969
 29.4616  9315.65  96.2915
 29.6596  9334.9  95.9645
 29.8576  9186.54  95.8683
 30.0556  9302.88  96.3606
 30.2536  9336.44  96.3188
 30.4516  9599.58  97.3122
 30.6496  9235.69  95.178
 30.8476  9389.25  96.4131
 31.0456  9450.25  96.689
 31.2436  9572.85  96.5799
 31.4416  9381.38  95.7809
 31.6396  9263.05  95.2067
 31.8376  9308.12  94.97
 32.0356  9167.85  94.8226
 32.2336  9295.43  94.8781
 32.4316  8831.86  92.8907
 32.6296  8841.52  92.7762
 32.8276  8961.67  93.1929
 33.0256  8826.2  92.5524
 33.2236  8835.92  92.7436
 33.4216  8826.62  92.3942
 33.6196  8843.29  92.7676
 33.8176  8847.52  92.9608
 34.0156  8766.37  92.1583
 34.2136  8785.69  92.278
 34.4116  8548.96  91.1985
 34.6096  8571.35  91.1894
 34.8076  8525.64  91.365
 35.0056  8534.33  91.0848
 35.2036  8732.07  92.3582
 35.4016  8500.67  91.0386
 35.5996  8410.15  90.5835
 35.7976  8289.57  90.213
 35.9956  8443.48  90.6899
 36.1936  8493.68  90.7974
 36.3916  8274.14  89.8195
 36.5896  8326.13  91.087
 36.7876  7999.62  88.6911
 36.9856  7986.33  88.6462
 37.1836  8022.89  87.9609
 37.3816  7873.02  87.497
 37.5796  8067.16  90.2798
 37.7776  8119.01  88.9394
 37.9756  8144.62  88.9655
 38.1736  8250.43  89.7337
 38.3716  7930.63  88.243
 38.5696  7891.54  88.3984
 38.7676  7894.73  87.9278
 38.9656  8104.7  88.7064
 39.1636  7937.51  88.0645
 39.3616  7938.9  88.0086
 39.5596  7771.35  87.9182
 39.7576  7780.83  87.3568
 39.9556  7920.53  87.7749
 40.1536  7927.8  88.0112
 40.3516  8000.38  88.5184
 40.5496  7890.24  88.0723
 40.7476  8055.5  88.9821
 40.9456  7964.36  88.238
 41.1436  8059.41  88.4825
 41.3416  7883.11  87.8475
 41.5396  7845.86  87.4496
 41.7376  7849.22  87.7249
 41.9356  7738.02  86.9647
 42.1336  8055.07  88.869
 42.3316  7743.88  87.3446
 42.5296  7826.66  87.3207
 42.7276  7938.74  88.1887
 42.9256  7868.88  87.6692
 43.1236  7785.48  87.3112
 43.3216  7892.81  87.657
 43.5196  7689.24  86.5784
 43.7176  7725.3  87.1711
 43.9156  7566.31  86.1984
 44.1136  7470.12  85.2042
 44.3116  7616.45  86.0545
 44.5096  7616.06  86.3576
 44.7076  7568.8  86.0177
 44.9056  7759.46  86.9638
 45.1036  7711.11  86.3117
 45.3016  7529.31  85.7882
 45.4996  7610.45  86.1904
 45.6976  7450.65  85.461
 45.8956  7475.73  85.4055
 46.0936  7632.1  86.3029
 46.2916  7575.53  85.9539
 46.4896  7535.39  85.7612
 46.6876  7524.69  86.4163
 46.8856  7416.62  85.1785
 47.0836  7482.13  85.6846
 47.2816  7392.93  85.0521
 47.4796  7420.09  85.3147
 47.6776  7316.8  85.6729
 47.8756  7396.99  85.3103
 48.0736  7378.35  85.6355
 48.2716  7327.35  85.1789
 48.4696  7390.16  85.1259
 48.6676  7343.63  85.4501
 48.8656  7549.05  86.3597
 49.0636  7372.2  85.2914
 49.2616  7200.22  84.3255
 49.4596  7350.39  84.7444
 49.6576  7229.45  84.2898
 49.8556  7306.61  84.7488
 50.0536  7399.25  85.7439
 50.2516  7311.29  85.3687
 50.4496  7321.44  85.0758
 50.6476  7305.49  84.6579
 50.8456  7300.48  84.7182
 51.0436  6973.1  83.247
 51.2416  7013.87  83.1628
 51.4396  6928.43  83.055
 51.6376  6946.04  82.9789
 51.8356  7003.68  82.9414
 52.0336  6956.38  83.1887
 52.2316  7038.58  84.034
 52.4296  6990.78  83.4514
 52.6276  6921.33  83.1502
 52.8256  6966.03  82.9662
 53.0236  7015.36  83.9014
 53.2216  7020.08  83.966
 53.4196  6871.86  82.9701
 53.6176  6839.84  83.2901
 53.8156  6928.26  83.4924
 54.0136  6702.97  82.294
 54.2116  6785.84  82.4377
 54.4096  6644.16  81.6467
 54.6076  6615.83  81.8199
 54.8056  6530.53  81.0624
 55.0036  6575.44  81.7486
 55.2016  6765.13  82.4168
 55.3996  6462.88  80.5541
 55.5976  6488.83  80.9105
 55.7956  6536.5  81.0054
 55.9936  6568.5  81.3559
 56.1916  6535.43  81.1847
 56.3896  6327.26  79.8571
 56.5876  6313.47  80.3259
 56.7856  6240.47  79.3595
 56.9836  6418.77  80.2495
 57.1816  6410.09  80.5516
 57.3796  6198.23  79.0111
 57.5776  6281.17  79.4479
 57.7756  6253.82  79.9447
 57.9736  6180.93  79.1434
 58.1716  6091.24  78.8465
 58.3696  5987.08  77.922
 58.5676  5990.58  77.4092
 58.7656  5907.95  77.5549
 58.9636  5924.51  77.691
 59.1616  6033.41  78.5362
 59.3596  6026.18  77.7569
 59.5576  6043.51  77.9266
 59.7556  5925.93  77.5792
 59.9536  6056.81  78.33
 60.1516  5777.64  77.3338
 60.1996  0.0000000E+00  0.0000000E+00