File: docs/examples/XRD/IS17_D/Data/IS17_D/17_Da_f00026.xye
# /beamlines/bl04/projects/cycle2025-II/20250340211-lsimonelli/DATA/IS17_D/17_Da_f00026.xye : mythproc.py merge -s 0.006 -l 0.5 -f /beamlines/bl04/inhouse/ff/FlatField/ff_20Nov2024rod8mm60s_17keV.raw -b True -c true -o xye /beamlines/bl04/projects/cycle2025-II/20250340211-lsimonelli/DATA/IS17_D/17_Da_00026.dat
# IsMon = [6763021, 6766223, 6763205]  IsPos = [-1.4999, -2.4885, -3.4988]
# Wave = 0.4962  CalPath /beamlines/bl04/projects/cycle2025-II/20250340211-lsimonelli/DATA/Align/Si_Pos1_25keV_f00001.cal
# Date = 2025-09-24_00:47:53 Dt = 4.8000  Bin = 0.0060  <imon> = 6764150 +/- 1468 (Min/Max) 6763021 / 6766223
# icurr 250.6766  mocoIn 1.7096E-05  mocoOut 0.8022  i15 7.07675e+06  imon 6.76415e+06  i7 5.3333  iEMpd_timer 4.8000  iEMpd_1 3.5669E-08  iEMpd_2 7.8261E-08  iEMpd_3 1.6929E-08  iEMpd_4 4.8431E-08  iEMhp_timer 4.8000  iEMhp_1 4.8975E-06  iEMhp_2 -2.4554E-08  iEMhp_3 -2.4802E-08  iEMhp_4 -2.2253E-08
#      9776
 1.7416  69447.7  263.627
 1.9396  45037.9  212.575
 2.1376  31478.4  177.713
 2.3356  28369.8  168.355
 2.5336  26177.6  162.289
 2.7316  24684.1  157.677
 2.9296  23770.5  154.9
 3.1276  23131  152.357
 3.3256  22800.5  150.934
 3.5236  24833.1  157.479
 3.7216  22567.9  151.208
 3.9196  22168.6  149.105
 4.1176  22281.6  149.262
 4.3156  23333.8  152.904
 4.5136  25685.3  159.415
 4.7116  26948.6  164.421
 4.9096  26184.2  161.517
 5.1076  25770  160.805
 5.3056  26472.6  162.72
 5.5036  26129.3  161.632
 5.7016  26445.3  162.491
 5.8996  27149.1  163.854
 6.0976  27645.7  166.774
 6.2956  28232.2  167.873
 6.4936  28761.6  168.642
 6.6916  29245.8  171.048
 6.8896  29942.5  172.937
 7.0876  30780.6  176.056
 7.2856  30591.8  174.584
 7.4836  30971.2  175.012
 7.6816  31711.7  177.616
 7.8796  33263.9  181.903
 8.0776  34680.2  186.698
 8.2756  36263.5  189.548
 8.4736  37098.5  191.517
 8.6716  35912.5  189.048
 8.8696  36116.1  190.077
 9.0676  35069.2  186.681
 9.2656  34046  184.606
 9.4636  33715.3  182.141
 9.6616  33061.1  181.132
 9.8596  31656.5  176.7
 10.0576  29962.6  172.549
 10.2556  29171.3  170.689
 10.4536  28312.8  167.773
 10.6516  27926.1  166.805
 10.8496  26993.2  163.436
 11.0476  26168.2  160.887
 11.2456  25612.9  159.747
 11.4436  25848  159.66
 11.6416  25127.7  157.772
 11.8396  23881.2  154.01
 12.0376  23850.7  153.534
 12.2356  23441.9  152.654
 12.4336  23381.3  151.979
 12.6316  22927.1  150.761
 12.8296  23289.2  151.593
 13.0276  23760.1  153.291
 13.2256  23728.4  153.549
 13.4236  23627.5  152.991
 13.6216  23701.2  153.253
 13.8196  23587.3  152.656
 14.0176  23306.1  152.022
 14.2156  22664.8  148.982
 14.4136  21491.2  146.416
 14.6116  21388.1  145.284
 14.8096  20735.5  143.04
 15.0076  19549.4  142.612
 15.2056  19358.8  137.81
 15.4036  18279.9  134.727
 15.6016  18203.6  133.542
 15.7996  17682.2  131.892
 15.9976  16876  131.747
 16.1956  16353  127.608
 16.3936  16043.4  125.584
 16.5916  15767.9  125.121
 16.7896  15876.8  125.611
 16.9876  15709.5  126.375
 17.1856  15337.5  123.266
 17.3836  15083  122.144
 17.5816  14703.3  121.078
 17.7796  14451.3  119.968
 17.9776  14380.5  120.46
 18.1756  14581.4  119.997
 18.3736  14579.8  120.516
 18.5716  14100.2  118.268
 18.7696  13958.7  117.258
 18.9676  13797.6  116.385
 19.1656  13678.7  116.438
 19.3636  13467.8  115.721
 19.5616  13475.6  115.928
 19.7596  13596.7  115.871
 19.9576  13969.4  117.491
 20.1556  13772.1  117.178
 20.3536  13157.4  113.915
 20.5516  12967.5  113.537
 20.7496  12658.8  112.122
 20.9476  12678.8  111.965
 21.1456  12825.3  112.935
 21.3436  12566.2  111.742
 21.5416  12462.7  111.281
 21.7396  12405.6  110.868
 21.9376  12406.9  110.638
 22.1356  12313.4  110.343
 22.3336  12442.5  111.2
 22.5316  12416.6  111.19
 22.7296  12187  109.529
 22.9276  12277.8  110.603
 23.1256  12473  110.956
 23.3236  12302  110.754
 23.5216  12186.3  109.898
 23.7196  12108.7  109.497
 23.9176  12130.4  109.353
 24.1156  12023.8  109.337
 24.3136  11453.7  107.47
 24.5116  11595.1  107.672
 24.7096  11100.2  105.171
 24.9076  11020.5  104.821
 25.1056  11128.7  105.512
 25.3036  10800.6  103.738
 25.5016  10808.7  103.813
 25.6996  10745.2  103.094
 25.8976  10612.9  102.892
 26.0956  10647.7  103.079
 26.2936  10661.7  102.793
 26.4916  10664  102.688
 26.6896  10324.6  101.329
 26.8876  10214  100.641
 27.0856  10378.8  101.46
 27.2836  10124.6  100.147
 27.4816  10074.7  99.8379
 27.6796  9873.65  99.2025
 27.8776  9910.46  99.2502
 28.0756  10017.8  100.064
 28.2736  9890.65  99.0184
 28.4716  9613.59  97.669
 28.6696  9727.13  98.0928
 28.8676  9629.23  97.9413
 29.0656  9414.11  96.8202
 29.2636  9446.77  96.7018
 29.4616  9428.54  96.8666
 29.6596  9275.22  95.6527
 29.8576  9131.52  95.5792
 30.0556  9298.12  96.3297
 30.2536  9379.51  96.5421
 30.4516  9166.15  95.1081
 30.6496  9205.41  95.0401
 30.8476  9163.96  95.2621
 31.0456  9023.1  94.4881
 31.2436  9072.18  94.0248
 31.4416  9014.77  93.8854
 31.6396  9048.42  94.1139
 31.8376  9007.35  93.4547
 32.0356  8862.15  93.2458
 32.2336  8782.98  92.2393
 32.4316  8743.28  92.4259
 32.6296  8750.3  92.2399
 32.8276  8737.29  92.0096
 33.0256  8664.2  91.6992
 33.2236  8530.32  91.138
 33.4216  8726.47  91.8784
 33.6196  8654.99  91.7792
 33.8176  8514.82  91.189
 34.0156  8541.93  90.9624
 34.2136  8406.46  90.277
 34.4116  8454.65  90.6855
 34.6096  8396.33  90.2534
 34.8076  8287.33  90.0678
 35.0056  8255.2  89.5905
 35.2036  8258.99  89.8091
 35.4016  8217.55  89.5142
 35.5996  8182.47  89.3554
 35.7976  8220.38  89.841
 35.9956  8302.23  89.93
 36.1936  8092.66  88.6561
 36.3916  8112.69  88.9401
 36.5896  7953.62  89.4672
 36.7876  7997.79  88.6771
 36.9856  7946.63  88.4167
 37.1836  7875.53  87.1457
 37.3816  8020.64  88.3049
 37.5796  7850.4  89.0449
 37.7776  7845.79  87.4336
 37.9756  7787.02  86.9904
 38.1736  7983.57  88.2795
 38.3716  7844.48  87.7801
 38.5696  7926.27  88.6055
 38.7676  7590.19  86.2136
 38.9656  7748.47  86.752
 39.1636  7726.43  86.8589
 39.3616  7672.88  86.5167
 39.5596  7601.16  86.9515
 39.7576  7608.61  86.3741
 39.9556  7666.39  86.351
 40.1536  7743.85  86.9847
 40.3516  7872.3  87.7133
 40.5496  7873.92  87.7726
 40.7476  7818.76  87.6808
 40.9456  7812.74  87.3964
 41.1436  7740.36  86.7197
 41.3416  7660.88  86.6009
 41.5396  7665.76  86.4344
 41.7376  7730.09  87.0621
 41.9356  7505.32  85.65
 42.1336  7683.48  86.8077
 42.3316  7673.75  86.9468
 42.5296  7646.58  86.317
 42.7276  7618.02  86.3939
 42.9256  7660.76  86.5053
 43.1236  7613.22  86.3436
 43.3216  7536.91  85.7641
 43.5196  7464.39  85.3129
 43.7176  7443.98  85.5854
 43.9156  7502.24  85.8292
 44.1136  7336.09  84.4311
 44.3116  7357.63  84.5668
 44.5096  7363.4  84.9045
 44.7076  7358.68  84.8119
 44.9056  7205.43  83.7976
 45.1036  7151.24  83.1241
 45.3016  7181.81  83.7922
 45.4996  7061.64  83.0277
 45.6976  6942.95  82.4978
 45.8956  7183.67  83.7218
 46.0936  7162.2  83.6058
 46.2916  7128.66  83.3869
 46.4896  7114.81  83.3369
 46.6876  6999.71  83.3556
 46.8856  6976.22  82.4921
 47.0836  6967.33  82.6835
 47.2816  6826.52  81.7227
 47.4796  6875.47  82.1171
 47.6776  6776.87  82.458
 47.8756  6854.75  82.1101
 48.0736  6822.82  82.3691
 48.2716  6715.14  81.5402
 48.4696  6921.76  82.3767
 48.6676  6747.43  81.9184
 48.8656  6768.9  81.7761
 49.0636  6745.28  81.5823
 49.2616  6571.15  80.5572
 49.4596  6691.44  80.852
 49.6576  6727.77  81.3113
 49.8556  6663.29  80.9349
 50.0536  6611.76  81.0462
 50.2516  6537.43  80.7013
 50.4496  6600.11  80.7763
 50.6476  6552.03  80.1762
 50.8456  6489.32  79.8762
 51.0436  6569.79  80.8015
 51.2416  6374.66  79.2765
 51.4396  6298.67  79.1862
 51.6376  6413.9  79.7357
 51.8356  6293.73  78.6274
 52.0336  6326.06  79.3342
 52.2316  6311.52  79.5816
 52.4296  6344.22  79.485
 52.6276  6291.63  79.265
 52.8256  6357.16  79.2504
 53.0236  6154.8  78.5913
 53.2216  6115.34  78.3702
 53.4196  6155.92  78.5566
 53.6176  6086.93  78.5812
 53.8156  5964.94  77.4735
 54.0136  6078.99  78.3803
 54.2116  6082.83  78.0797
 54.4096  6091.88  78.1786
 54.6076  5973.66  77.7645
 54.8056  5994.54  77.6923
 55.0036  5959.29  77.8427
 55.2016  5994.09  77.6234
 55.3996  5985.26  77.5381
 55.5976  5949.36  77.4934
 55.7956  6025.16  77.7948
 55.9936  5964.35  77.5427
 56.1916  5855.23  76.841
 56.3896  5981.25  77.66
 56.5876  5793.13  76.9627
 56.7856  5908.7  77.2199
 56.9836  5840.92  76.5675
 57.1816  5880.73  77.1946
 57.3796  5978.19  77.6312
 57.5776  5906.09  77.0917
 57.7756  5906.87  77.7272
 57.9736  5934.72  77.5882
 58.1716  5942.33  77.8773
 58.3696  5887.36  77.2634
 58.5676  5887.47  76.7491
 58.7656  5901.06  77.5016
 58.9636  6109.48  78.8948
 59.1616  5896.33  77.6354
 59.3596  6090.2  78.1677
 59.5576  6117.75  78.401
 59.7556  5840.8  77.0172
 59.9536  5918.13  77.4253
 60.1516  6002.41  78.8209
 60.1996  0.0000000E+00  0.0000000E+00