File: docs/examples/XRD/IS17_D/Data/IS17_D/17_Da_f00147.xye
# /beamlines/bl04/projects/cycle2025-II/20250340211-lsimonelli/DATA/IS17_D/17_Da_f00147.xye : mythproc.py merge -s 0.006 -l 0.5 -f /beamlines/bl04/inhouse/ff/FlatField/ff_20Nov2024rod8mm60s_17keV.raw -b True -c true -o xye /beamlines/bl04/projects/cycle2025-II/20250340211-lsimonelli/DATA/IS17_D/17_Da_00147.dat
# IsMon = [6751253, 6751290, 6747061]  IsPos = [-1.4999, -2.4883, -3.4988]
# Wave = 0.4962  CalPath /beamlines/bl04/projects/cycle2025-II/20250340211-lsimonelli/DATA/Align/Si_Pos1_25keV_f00001.cal
# Date = 2025-09-25_10:32:02 Dt = 4.8000  Bin = 0.0060  <imon> = 6749868 +/- 1985 (Min/Max) 6747061 / 6751290
# icurr 249.7174  mocoIn 1.7037E-05  mocoOut 0.7987  i15 7.06649e+06  imon 6.74987e+06  i7 8.6667  iEMpd_timer 4.8000  iEMpd_1 3.4331E-08  iEMpd_2 7.8312E-08  iEMpd_3 1.8108E-08  iEMpd_4 4.8447E-08  iEMhp_timer 4.8000  iEMhp_1 4.8786E-06  iEMhp_2 -2.5308E-08  iEMhp_3 -2.4006E-08  iEMhp_4 -2.0155E-08
#      9776
 1.7416  70182.3  264.968
 1.9396  46029.6  214.863
 2.1376  32451.4  180.404
 2.3356  28984.8  170.139
 2.5336  27027.6  164.872
 2.7316  25435.9  160.054
 2.9296  24364.3  156.812
 3.1276  23740.6  154.343
 3.3256  23874.1  154.462
 3.5236  25503.6  159.43
 3.7216  23360.5  153.84
 3.9196  22857.8  151.409
 4.1176  22675.5  150.559
 4.3156  24027.1  155.164
 4.5136  26343.5  161.445
 4.7116  27445.5  165.929
 4.9096  26793.3  163.384
 5.1076  26442.5  162.882
 5.3056  27095.1  164.626
 5.5036  26784.7  163.557
 5.7016  27197.4  164.786
 5.8996  27914.7  166.155
 6.0976  28615.9  169.676
 6.2956  29100.5  170.444
 6.4936  29613.1  171.12
 6.6916  29941.9  173.073
 6.8896  30607.4  174.843
 7.0876  31845  179.075
 7.2856  31647.1  177.57
 7.4836  32179.5  178.471
 7.6816  32907.1  180.935
 7.8796  34160.5  184.353
 8.0776  35990.6  190.214
 8.2756  37656.4  193.174
 8.4736  38282.5  194.572
 8.6716  37793.4  193.949
 8.8696  37530.7  193.762
 9.0676  36875.1  191.421
 9.2656  35930  189.641
 9.4636  35293.4  186.361
 9.6616  34773.3  185.771
 9.8596  33377.9  181.426
 10.0576  31874.1  177.963
 10.2556  30724.2  175.164
 10.4536  29892.7  172.378
 10.6516  29240.6  170.674
 10.8496  28196.6  167.044
 11.0476  27664.3  165.479
 11.2456  26982.8  163.957
 11.4436  27392.2  164.349
 11.6416  26453.5  161.883
 11.8396  25000.2  157.568
 12.0376  24924.7  156.982
 12.2356  24321.8  155.464
 12.4336  24342.5  155.076
 12.6316  23993.1  154.222
 12.8296  24234.5  154.639
 13.0276  24972.7  157.165
 13.2256  24800.1  156.978
 13.4236  24792.6  156.724
 13.6216  24506.3  155.829
 13.8196  24559.1  155.77
 14.0176  24244  155.056
 14.2156  23672.6  152.251
 14.4136  22679.6  150.409
 14.6116  22352.6  148.524
 14.8096  21620.2  146.061
 15.0076  20498.5  146.031
 15.2056  20261.8  141.001
 15.4036  19216.2  138.145
 15.6016  18659.1  135.214
 15.7996  18448.4  134.73
 15.9976  17687.4  134.881
 16.1956  17206.8  130.893
 16.3936  16803.1  128.521
 16.5916  16604.6  128.397
 16.7896  16645.8  128.615
 16.9876  16452.4  129.328
 17.1856  16105.1  126.309
 17.3836  15767.6  124.879
 17.5816  15271.1  123.381
 17.7796  15294.4  123.401
 17.9776  15031.4  123.154
 18.1756  15130.5  122.247
 18.3736  15152.3  122.858
 18.5716  14783.6  121.106
 18.7696  14816.5  120.804
 18.9676  14425.5  119.002
 19.1656  14366.3  119.324
 19.3636  14223.8  118.935
 19.5616  14205.6  119.032
 19.7596  14232  118.531
 19.9576  14881.8  121.27
 20.1556  14243.2  119.169
 20.3536  13841.8  116.847
 20.5516  13459.5  115.673
 20.7496  13290.8  114.887
 20.9476  13118.6  113.885
 21.1456  13402.8  115.452
 21.3436  13118.3  114.172
 21.5416  13103  114.101
 21.7396  12951.8  113.287
 21.9376  12848.4  112.608
 22.1356  13016.8  113.459
 22.3336  12846.5  113.014
 22.5316  12899.6  113.34
 22.7296  12780.4  112.163
 22.9276  12809.5  112.983
 23.1256  12985.8  113.24
 23.3236  12740.5  112.713
 23.5216  12701.2  112.194
 23.7196  12690.3  112.094
 23.9176  12508.6  111.033
 24.1156  12468.8  111.34
 24.3136  11813.3  109.145
 24.5116  12009.6  109.572
 24.7096  11658.4  107.776
 24.9076  11419.9  106.692
 25.1056  11234.8  106.288
 25.3036  11300.5  106.114
 25.5016  11316.8  106.229
 25.6996  11230.6  105.403
 25.8976  11090.3  105.173
 26.0956  11123  105.358
 26.2936  11024.2  104.522
 26.4916  11078.4  104.66
 26.6896  10753.5  103.416
 26.8876  10670.3  102.863
 27.0856  10652.3  102.838
 27.2836  10557.4  102.325
 27.4816  10521.9  102.023
 27.6796  10333.8  101.489
 27.8776  10210.1  100.734
 28.0756  10317.2  101.554
 28.2736  10206.3  100.584
 28.4716  10029.9  99.7629
 28.6696  10023.6  99.5756
 28.8676  9927.18  99.4438
 29.0656  9760.27  98.5954
 29.2636  9774.16  98.4429
 29.4616  9765.05  98.5897
 29.6596  9886.79  98.7645
 29.8576  9547.89  97.7423
 30.0556  9674.01  98.2651
 30.2536  9745.46  98.4167
 30.4516  9634.39  97.5061
 30.6496  9647.93  97.296
 30.8476  9592.73  97.4631
 31.0456  9373.62  96.3006
 31.2436  9540.54  96.4156
 31.4416  9291.48  95.3141
 31.6396  9340.3  95.6111
 31.8376  9341.5  95.1689
 32.0356  9401.35  96.0391
 32.2336  9185.07  94.3163
 32.4316  9090.71  94.2036
 32.6296  9009.87  93.6633
 32.8276  9036.11  93.565
 33.0256  8982.92  93.3787
 33.2236  8910.81  93.1419
 33.4216  8991.19  93.2584
 33.6196  9008.22  93.6373
 33.8176  8836.04  92.9042
 34.0156  8900.75  92.8556
 34.2136  8795.24  92.3395
 34.4116  8814.43  92.7139
 34.6096  8718.88  91.9741
 34.8076  8622.33  91.8673
 35.0056  8676.54  91.8467
 35.2036  8516.9  91.2026
 35.4016  8601.66  91.5874
 35.5996  8575.64  91.4696
 35.7976  8505.51  91.3758
 35.9956  8555.23  91.2929
 36.1936  8424.99  90.4653
 36.3916  8359.02  90.239
 36.5896  8330.76  91.0808
 36.7876  8515.29  91.512
 36.9856  8192.93  89.7861
 37.1836  8321.67  89.5875
 37.3816  8284.92  89.7579
 37.5796  8183.72  90.9223
 37.7776  8164.4  89.1828
 37.9756  8068.54  88.5458
 38.1736  8147.68  89.1801
 38.3716  8143.9  89.4375
 38.5696  8032.11  89.1938
 38.7676  7807.94  87.4319
 38.9656  7990.79  88.0923
 39.1636  7887.11  87.7708
 39.3616  8027.33  88.4905
 39.5596  7929.69  88.7923
 39.7576  7913.31  88.0872
 39.9556  8020.34  88.3132
 40.1536  8017.31  88.5114
 40.3516  8091.52  88.9289
 40.5496  7966.89  88.4982
 40.7476  8063.89  89.0441
 40.9456  8046.82  88.6986
 41.1436  8063.95  88.5062
 41.3416  8005.38  88.5002
 41.5396  8006.46  88.2723
 41.7376  7947.94  88.2844
 41.9356  7967.72  88.2486
 42.1336  8025.33  88.7125
 42.3316  7854.75  87.9682
 42.5296  7882.49  87.6312
 42.7276  7852.03  87.7097
 42.9256  7803.22  87.3042
 43.1236  7777.25  87.2701
 43.3216  7811.35  87.2085
 43.5196  7717.23  86.74
 43.7176  7807.14  87.6452
 43.9156  7613.98  86.4721
 44.1136  7729.25  86.6744
 44.3116  7661.38  86.3096
 44.5096  7698.9  86.8296
 44.7076  7636.26  86.4047
 44.9056  7522.57  85.6232
 45.1036  7453.82  84.8613
 45.3016  7453.82  85.3548
 45.4996  7341.03  84.6519
 45.6976  7408.82  85.2212
 45.8956  7391.47  84.9227
 46.0936  7391.21  84.8694
 46.2916  7474.63  85.3814
 46.4896  7388.22  84.9189
 46.6876  7254.48  84.8533
 46.8856  7164.88  83.606
 47.0836  7199.5  84.049
 47.2816  7097.05  83.3317
 47.4796  7109.17  83.5084
 47.6776  7077.88  84.2626
 47.8756  7116.91  83.6697
 48.0736  7106.58  84.0732
 48.2716  6958.83  83.049
 48.4696  7027.69  83.0342
 48.6676  7073.24  83.8656
 48.8656  7035.14  83.3759
 49.0636  7013.85  83.1908
 49.2616  6855.36  82.1762
 49.4596  6818.74  81.7708
 49.6576  6803.92  81.7533
 49.8556  6885.34  82.2726
 50.0536  6802.83  82.2223
 50.2516  6798.08  82.328
 50.4496  6760.25  81.7475
 50.6476  6824.93  81.8283
 50.8456  6818.46  81.8835
 51.0436  6652.11  81.3133
 51.2416  6730.33  81.4672
 51.4396  6527.87  80.618
 51.6376  6626.14  81.0459
 51.8356  6616.93  80.626
 52.0336  6459.21  80.1613
 52.2316  6457.43  80.4924
 52.4296  6477.37  80.3206
 52.6276  6492.21  80.5289
 52.8256  6551.11  80.45
 53.0236  6405.72  80.1719
 53.2216  6298.21  79.5319
 53.4196  6216.15  78.9368
 53.6176  6361.2  80.3267
 53.8156  6435.87  80.4662
 54.0136  6400.2  80.4326
 54.2116  6285.52  79.3671
 54.4096  6396.49  80.1107
 54.6076  6321.16  79.9943
 54.8056  6114.62  78.4649
 55.0036  6281.49  79.9229
 55.2016  6125.95  78.4745
 55.3996  6278.39  79.4173
 55.5976  6185.25  79.0033
 55.7956  6169.51  78.7313
 55.9936  6185  78.9553
 56.1916  6165.61  78.8512
 56.3896  6263.18  79.47
 56.5876  6150.28  79.2983
 56.7856  6165.17  78.877
 56.9836  6056.16  77.9623
 57.1816  6220.04  79.3848
 57.3796  6226  79.2283
 57.5776  6225.36  79.1428
 57.7756  6130.12  79.1819
 57.9736  6095.15  78.6309
 58.1716  6168.12  79.3441
 58.3696  6186.61  79.2134
 58.5676  6135.17  78.359
 58.7656  6152.88  79.1396
 58.9636  6250.41  79.8064
 59.1616  6164.75  79.3797
 59.3596  6301.35  79.5221
 59.5576  6245.91  79.2289
 59.7556  6195.13  79.3299
 59.9536  6236.84  79.4937
 60.1516  6150.04  79.7953
 60.1996  0.0000000E+00  0.0000000E+00