File: docs/examples/XRD/IS17_D/Data/IS17_D/17_Da_f00116.xye
# /beamlines/bl04/projects/cycle2025-II/20250340211-lsimonelli/DATA/IS17_D/17_Da_f00116.xye : mythproc.py merge -s 0.006 -l 0.5 -f /beamlines/bl04/inhouse/ff/FlatField/ff_20Nov2024rod8mm60s_17keV.raw -b True -c true -o xye /beamlines/bl04/projects/cycle2025-II/20250340211-lsimonelli/DATA/IS17_D/17_Da_00116.dat
# IsMon = [6746665, 6753098, 6756291]  IsPos = [-1.4999, -2.4884, -3.4988]
# Wave = 0.4962  CalPath /beamlines/bl04/projects/cycle2025-II/20250340211-lsimonelli/DATA/Align/Si_Pos1_25keV_f00001.cal
# Date = 2025-09-25_01:53:38 Dt = 4.8000  Bin = 0.0060  <imon> = 6752018 +/- 4003 (Min/Max) 6746665 / 6756291
# icurr 249.4056  mocoIn 1.7015E-05  mocoOut 0.7983  i15 7.07158e+06  imon 6.75202e+06  i7 2.6667  iEMpd_timer 4.8000  iEMpd_1 3.5857E-08  iEMpd_2 8.1354E-08  iEMpd_3 1.7244E-08  iEMpd_4 4.7790E-08  iEMhp_timer 4.8000  iEMhp_1 4.8734E-06  iEMhp_2 -2.4498E-08  iEMhp_3 -2.4424E-08  iEMhp_4 -2.0427E-08
#      9776
 1.7416  70505.5  265.71
 1.9396  46194.7  215.353
 2.1376  33266.9  182.749
 2.3356  29774.2  172.526
 2.5336  27950  167.746
 2.7316  26456  163.269
 2.9296  25640.6  160.91
 3.1276  24751.6  157.652
 3.3256  24317.3  155.9
 3.5236  26084.3  161.266
 3.7216  23830  155.378
 3.9196  23287  152.816
 4.1176  23121.3  152.056
 4.3156  24433.7  156.456
 4.5136  26741.8  162.663
 4.7116  27861.6  167.183
 4.9096  27027  164.098
 5.1076  26638  163.504
 5.3056  27239.9  165.039
 5.5036  26927.9  163.993
 5.7016  27381.2  165.342
 5.8996  27779.7  165.751
 6.0976  28740  170.058
 6.2956  29239.6  170.832
 6.4936  30174  172.731
 6.6916  30340.8  174.216
 6.8896  31084.6  176.196
 7.0876  32330.6  180.435
 7.2856  32091.8  178.817
 7.4836  32515.4  179.319
 7.6816  33512.4  182.588
 7.8796  34863.4  186.194
 8.0776  36231.2  190.801
 8.2756  38059  194.141
 8.4736  38786.7  195.792
 8.6716  38105.1  194.719
 8.8696  38145.5  195.337
 9.0676  37425.6  192.838
 9.2656  36298.5  190.614
 9.4636  35756.5  187.554
 9.6616  35341.6  187.249
 9.8596  33796.3  182.606
 10.0576  31959.7  178.24
 10.2556  30989.5  175.96
 10.4536  29420.7  171.056
 10.6516  28567.1  168.749
 10.8496  28056.8  166.625
 11.0476  27238.4  164.199
 11.2456  26678.4  163.034
 11.4436  26747.7  162.417
 11.6416  27489.8  165.02
 11.8396  25366.6  158.739
 12.0376  25304.8  158.153
 12.2356  24445.2  155.856
 12.4336  24423.8  155.336
 12.6316  24290.8  155.195
 12.8296  24560.4  155.675
 13.0276  25180  157.795
 13.2256  25174  158.16
 13.4236  25160.4  157.878
 13.6216  24880.5  157.033
 13.8196  25003  157.168
 14.0176  24509.5  155.883
 14.2156  24008  153.332
 14.4136  22795.5  150.79
 14.6116  22614.4  149.391
 14.8096  21839.2  146.783
 15.0076  20832.2  147.245
 15.2056  20414.9  141.493
 15.4036  19271.1  138.313
 15.6016  19159.2  136.979
 15.7996  18392  134.483
 15.9976  17758.3  135.117
 16.1956  17193.7  130.842
 16.3936  17005  129.29
 16.5916  16740.9  128.921
 16.7896  16537.9  128.194
 16.9876  16610.6  129.956
 17.1856  16327.1  127.196
 17.3836  15904.5  125.444
 17.5816  15397.8  123.924
 17.7796  15011  122.288
 17.9776  14965  122.88
 18.1756  14949.3  121.525
 18.3736  14616.5  120.667
 18.5716  14603.4  120.365
 18.7696  14711.8  120.378
 18.9676  14379  118.824
 19.1656  14104.7  118.226
 19.3636  14281.3  119.172
 19.5616  14119.9  118.668
 19.7596  14199.7  118.421
 19.9576  14501.1  119.708
 20.1556  15103.7  122.705
 20.3536  14156.8  118.164
 20.5516  13724  116.801
 20.7496  13447  115.557
 20.9476  13317.9  114.762
 21.1456  13384.3  115.362
 21.3436  13143  114.279
 21.5416  13098  114.085
 21.7396  12903.3  113.078
 21.9376  13022.8  113.356
 22.1356  13017.8  113.464
 22.3336  12958.8  113.488
 22.5316  12961.1  113.572
 22.7296  12894.9  112.646
 22.9276  12791.4  112.874
 23.1256  12994.7  113.229
 23.3236  12996  113.838
 23.5216  12835.1  112.784
 23.7196  12617.7  111.77
 23.9176  12626.3  111.568
 24.1156  12469.4  111.34
 24.3136  11990.7  109.99
 24.5116  11990.4  109.513
 24.7096  11663.3  107.825
 24.9076  11587.9  107.511
 25.1056  11351  106.865
 25.3036  11295.6  106.092
 25.5016  11247.8  105.901
 25.6996  11256  105.518
 25.8976  11149.3  105.468
 26.0956  11134.1  105.396
 26.2936  11208  105.395
 26.4916  11223.8  105.344
 26.6896  10994.2  104.568
 26.8876  10762.7  103.32
 27.0856  10807.3  103.564
 27.2836  10585.4  102.402
 27.4816  10388.6  101.369
 27.6796  10446.6  102.039
 27.8776  10341  101.39
 28.0756  10254.1  101.231
 28.2736  10295.9  101.027
 28.4716  10017.5  99.6977
 28.6696  10196.9  100.431
 28.8676  9964.33  99.6277
 29.0656  9945.46  99.5148
 29.2636  9832.2  98.7472
 29.4616  9786.9  98.6764
 29.6596  9831.07  98.4613
 29.8576  9683.27  98.4089
 30.0556  9683.79  98.2744
 30.2536  9768.16  98.5066
 30.4516  9555.63  97.1051
 30.6496  9645.77  97.2865
 30.8476  9637.48  97.6914
 31.0456  9647.05  97.7087
 31.2436  9519.92  96.3256
 31.4416  9221.55  94.9816
 31.6396  9340.07  95.6388
 31.8376  9430.24  95.6415
 32.0356  9260.95  95.3443
 32.2336  9239.15  94.6258
 32.4316  9172.06  94.6682
 32.6296  9143.5  94.3566
 32.8276  9134.01  94.0857
 33.0256  9054.68  93.7485
 33.2236  8964.53  93.4355
 33.4216  9060.01  93.6068
 33.6196  9049.05  93.8491
 33.8176  9008.2  93.8067
 34.0156  8968.22  93.2092
 34.2136  8866.67  92.723
 34.4116  8698.41  91.9767
 34.6096  8649.25  91.6053
 34.8076  8751.66  92.5527
 35.0056  8796.1  92.4786
 35.2036  8659.55  91.9756
 35.4016  8666.92  91.9228
 35.5996  8652.37  91.8875
 35.7976  8456.12  91.1081
 35.9956  8614.07  91.6061
 36.1936  8443.38  90.5618
 36.3916  8414.87  90.581
 36.5896  8413.21  91.5591
 36.7876  8371.32  90.7122
 36.9856  8254.11  90.1024
 37.1836  8368.21  89.8141
 37.3816  8371.08  90.196
 37.5796  8285.41  91.4778
 37.7776  8237.74  89.6025
 37.9756  8154.96  89.0341
 38.1736  8188.53  89.4048
 38.3716  8291.39  90.2427
 38.5696  8046.08  89.2711
 38.7676  7858.77  87.7461
 38.9656  7919.8  87.7233
 39.1636  8014.33  88.5161
 39.3616  8059.05  88.684
 39.5596  7931.82  88.8193
 39.7576  7933.31  88.1989
 39.9556  7945.24  87.9126
 40.1536  8101.82  88.9788
 40.3516  8131.79  89.1481
 40.5496  8170.84  89.6243
 40.7476  8170.71  89.6232
 40.9456  8172.19  89.387
 41.1436  8052.86  88.458
 41.3416  7941.64  88.1658
 41.5396  7978.04  88.1803
 41.7376  7902.93  88.0304
 41.9356  7894.92  87.8478
 42.1336  7969.84  88.4159
 42.3316  8011.27  88.8336
 42.5296  7993.95  88.2571
 42.7276  7964.87  88.3391
 42.9256  7924.32  87.9787
 43.1236  7810.17  87.4542
 43.3216  7819.82  87.2561
 43.5196  7766.38  87.0291
 43.7176  7705.4  87.0718
 43.9156  7688.97  86.8745
 44.1136  7687.89  86.4207
 44.3116  7683.59  86.4029
 44.5096  7602.16  86.2601
 44.7076  7640.89  86.4082
 44.9056  7598.08  86.0531
 45.1036  7658.71  86.0198
 45.3016  7640.57  86.4215
 45.4996  7444.32  85.2448
 45.6976  7423.14  85.2865
 45.8956  7487.13  85.491
 46.0936  7445.67  85.2642
 46.2916  7425.01  85.1137
 46.4896  7521.79  85.7073
 46.6876  7335.5  85.3434
 46.8856  7283.8  84.2943
 47.0836  7344.11  84.8929
 47.2816  7248.15  84.2118
 47.4796  7199.47  84.0437
 47.6776  6992.94  83.7583
 47.8756  7103.72  83.5966
 48.0736  7259.79  84.9689
 48.2716  7036.32  83.4623
 48.4696  7174.73  83.872
 48.6676  7048.69  83.7148
 48.8656  6987.93  83.0948
 49.0636  7037.5  83.3416
 49.2616  6930.73  82.722
 49.4596  7059.72  83.0669
 49.6576  6884.05  82.2466
 49.8556  6910.17  82.421
 50.0536  7048.59  83.6955
 50.2516  6966.68  83.3375
 50.4496  6786.96  81.9077
 50.6476  6899.73  82.274
 50.8456  6866.58  82.1664
 51.0436  6830.11  82.3735
 51.2416  6729.97  81.436
 51.4396  6569.75  80.8623
 51.6376  6609.44  80.9317
 51.8356  6675.4  80.9611
 52.0336  6531.29  80.6073
 52.2316  6566.17  81.1682
 52.4296  6692.97  81.6288
 52.6276  6560.84  80.9321
 52.8256  6460.01  79.8766
 53.0236  6457.02  80.5141
 53.2216  6358.41  79.9259
 53.4196  6448.66  80.4145
 53.6176  6381.91  80.4778
 53.8156  6490.45  80.8237
 54.0136  6497.84  81.0317
 54.2116  6345.74  79.7545
 54.4096  6334.9  79.7302
 54.6076  6360.15  80.2411
 54.8056  6290.95  79.5891
 55.0036  6273.86  79.8716
 55.2016  6324.24  79.7444
 55.3996  6346.95  79.8411
 55.5976  6325.76  79.9067
 55.7956  6223.56  79.0718
 55.9936  6306.01  79.7339
 56.1916  6254.05  79.4131
 56.3896  6201.7  79.0742
 56.5876  6161.86  79.3742
 56.7856  6182.25  78.9888
 56.9836  6178.59  78.7565
 57.1816  6146.47  78.9278
 57.3796  6221.92  79.2008
 57.5776  6212.95  79.0738
 57.7756  6178.36  79.4928
 57.9736  6189.54  79.2371
 58.1716  6208.41  79.5932
 58.3696  6154.16  78.9854
 58.5676  6322.74  79.5189
 58.7656  6123.42  78.9371
 58.9636  6276.59  79.9547
 59.1616  6167.57  79.3781
 59.3596  6256.77  79.1984
 59.5576  6433.35  80.3668
 59.7556  6059.71  78.4169
 59.9536  6380.29  80.3606
 60.1516  6236.3  80.3109
 60.1996  0.0000000E+00  0.0000000E+00