File: docs/examples/XRD/IS17_D/Data/IS17_D/17_Db_f00016.xye
# /beamlines/bl04/projects/cycle2025-II/20250340211-lsimonelli/DATA/IS17_D/17_Db_f00016.xye : mythproc.py merge -s 0.006 -l 0.5 -f /beamlines/bl04/inhouse/ff/FlatField/ff_20Nov2024rod8mm60s_17keV.raw -b True -c true -o xye /beamlines/bl04/projects/cycle2025-II/20250340211-lsimonelli/DATA/IS17_D/17_Db_00016.dat
# IsMon = [6754119, 6751442, 6750983]  IsPos = [-1.5000, -2.4885, -3.4986]
# Wave = 0.4962  CalPath /beamlines/bl04/projects/cycle2025-II/20250340211-lsimonelli/DATA/Align/Si_Pos1_25keV_f00001.cal
# Date = 2025-09-23_22:10:26 Dt = 4.8000  Bin = 0.0060  <imon> = 6752181 +/- 1383 (Min/Max) 6750983 / 6754119
# icurr 250.0609  mocoIn 1.7057E-05  mocoOut 0.8001  i15 7.07098e+06  imon 6.75218e+06  i7 6.6667  iEMpd_timer 4.8000  iEMpd_1 3.5907E-08  iEMpd_2 7.9425E-08  iEMpd_3 1.7830E-08  iEMpd_4 4.7928E-08  iEMhp_timer 4.8000  iEMhp_1 4.8858E-06  iEMhp_2 -2.4214E-08  iEMhp_3 -2.2926E-08  iEMhp_4 -1.9884E-08
#      9776
 1.7416  67912.5  260.638
 1.9396  46304.7  215.49
 2.1376  33500  183.289
 2.3356  30194.4  173.645
 2.5336  30750.2  175.853
 2.7316  25899.6  161.517
 2.9296  24510.1  157.281
 3.1276  23852  154.7
 3.3256  23220.2  152.32
 3.5236  25098.5  158.295
 3.7216  22546.2  151.126
 3.9196  22649.7  150.687
 4.1176  22150.3  148.801
 4.3156  23021.1  151.884
 4.5136  26188.5  160.973
 4.7116  26760.7  163.843
 4.9096  25897  160.614
 5.1076  25507.5  159.968
 5.3056  25687.4  160.159
 5.5036  24949.4  157.88
 5.7016  25425.2  159.324
 5.8996  25833.8  159.854
 6.0976  26877.4  164.416
 6.2956  26812.6  163.6
 6.4936  27668.9  165.404
 6.6916  28097.7  167.639
 6.8896  29212.8  170.767
 7.0876  30117.1  174.051
 7.2856  29451.5  171.29
 7.4836  30381  173.329
 7.6816  31067.7  175.777
 7.8796  31593.9  177.293
 8.0776  35852.7  189.853
 8.2756  35790.9  188.32
 8.4736  35516.1  187.412
 8.6716  34855.4  186.265
 8.8696  36840.7  191.98
 9.0676  35711.7  188.353
 9.2656  33653.5  183.512
 9.4636  32763.5  179.582
 9.6616  31920.9  177.97
 9.8596  31122.3  175.179
 10.0576  29228  170.413
 10.2556  28618.5  169.057
 10.4536  33413.3  182.256
 10.6516  34539.7  185.526
 10.8496  26115  160.752
 11.0476  25791.5  159.729
 11.2456  29150.8  170.422
 11.4436  25150  157.487
 11.6416  24417.7  155.49
 11.8396  23487.1  152.705
 12.0376  22649.3  149.615
 12.2356  24482.6  156.004
 12.4336  23635.3  152.808
 12.6316  22328.4  148.765
 12.8296  22767.5  149.854
 13.0276  23018.3  150.885
 13.2256  22678.7  150.114
 13.4236  22937.2  150.738
 13.6216  23300.4  151.926
 13.8196  26324.2  160.862
 14.0176  22664.2  149.925
 14.2156  22098.8  147.084
 14.4136  20711.1  143.733
 14.6116  20731.4  143.029
 14.8096  19899.3  140.105
 15.0076  19453.7  142.326
 15.2056  18086.9  133.221
 15.4036  17561.8  132.073
 15.6016  17020.6  129.144
 15.7996  16875  128.856
 15.9976  16321  129.502
 16.1956  15925.5  125.887
 16.3936  15807.7  124.621
 16.5916  15605.3  124.454
 16.7896  15521.1  124.163
 16.9876  15475.2  125.415
 17.1856  15411.4  123.564
 17.3836  14593.2  120.151
 17.5816  14420.7  119.903
 17.7796  14603  120.594
 17.9776  14519.9  121.014
 18.1756  15669.9  124.432
 18.3736  15432.1  123.976
 18.5716  13777.4  116.902
 18.7696  13824  116.674
 18.9676  13559.5  115.351
 19.1656  13196.4  114.371
 19.3636  13174.6  114.471
 19.5616  13223.1  114.838
 19.7596  13280.5  114.505
 19.9576  13862.9  117.034
 20.1556  12921.1  113.49
 20.3536  12790.3  112.325
 20.5516  12429.3  111.152
 20.7496  12455.8  111.119
 20.9476  12904.4  112.947
 21.1456  12813.8  112.881
 21.3436  12318.8  110.634
 21.5416  12320.7  110.654
 21.7396  11829.9  108.27
 21.9376  11968.4  108.684
 22.1356  12473.6  111.1
 22.3336  12107.7  109.706
 22.5316  11869.1  108.722
 22.7296  11576.4  106.772
 22.9276  11538.4  107.237
 23.1256  12110.8  109.356
 23.3236  12005.3  109.42
 23.5216  12034.5  109.194
 23.7196  12073.6  109.535
 23.9176  12027.6  108.871
 24.1156  11617.6  107.449
 24.3136  11547.8  107.916
 24.5116  11606.2  107.716
 24.7096  11349.2  106.339
 24.9076  11298.9  106.125
 25.1056  11049.5  105.141
 25.3036  10585.2  102.701
 25.5016  10638.1  102.992
 25.6996  10666.1  102.719
 25.8976  10851.8  104.032
 26.0956  10609.1  102.881
 26.2936  10537.8  102.199
 26.4916  10809.3  103.362
 26.6896  10357.9  101.477
 26.8876  10245.3  100.786
 27.0856  10271.8  100.945
 27.2836  9909.48  99.2309
 27.4816  10074  99.8314
 27.6796  9890.77  99.2697
 27.8776  10351.4  101.419
 28.0756  9658.93  98.2539
 28.2736  9882.58  98.9671
 28.4716  9493.66  97.0569
 28.6696  9486.67  96.8649
 28.8676  9519.72  97.3797
 29.0656  9347.13  96.4738
 29.2636  9383.33  96.368
 29.4616  8917.94  94.2192
 29.6596  9059.89  94.5466
 29.8576  8963.06  94.7036
 30.0556  9054.16  95.0672
 30.2536  8898.03  94.0346
 30.4516  9210.15  95.317
 30.6496  9158.01  94.782
 30.8476  9097.42  94.8995
 31.0456  9035.59  94.5381
 31.2436  9040.21  93.8402
 31.4416  8883.38  93.199
 31.6396  9418.91  96.0152
 31.8376  9006.4  93.4269
 32.0356  8908.52  93.4678
 32.2336  8836.83  92.5065
 32.4316  8653.45  91.9467
 32.6296  8629.23  91.5867
 32.8276  8599.1  91.2926
 33.0256  8467.7  90.6584
 33.2236  8538  91.1686
 33.4216  8501.9  90.6688
 33.6196  8354.44  90.1646
 33.8176  8486.88  91.0445
 34.0156  8348.77  89.9346
 34.2136  8308.73  89.7324
 34.4116  8131.96  88.9467
 34.6096  8220.96  89.3047
 34.8076  8144.33  89.2978
 35.0056  8161.48  89.0654
 35.2036  8370.91  90.4231
 35.4016  8160.4  89.2021
 35.5996  8095.8  88.8749
 35.7976  8122.5  89.2936
 35.9956  8222.45  89.496
 36.1936  8125.29  88.8157
 36.3916  7984.35  88.2358
 36.5896  8150.86  90.589
 36.7876  7753.51  87.3194
 36.9856  7628.48  86.6359
 37.1836  7714.86  86.2611
 37.3816  7653.79  86.2739
 37.5796  7795.77  88.752
 37.7776  7813.65  87.248
 37.9756  7862.31  87.3986
 38.1736  7952.01  88.0933
 38.3716  7939.46  88.2916
 38.5696  7635.56  86.9474
 38.7676  7675.57  86.6916
 38.9656  7667.72  86.2857
 39.1636  7709.84  86.7702
 39.3616  7708.53  86.7234
 39.5596  7479.26  86.243
 39.7576  7455.98  85.5107
 39.9556  7652.61  86.2795
 40.1536  7656.75  86.4949
 40.3516  7595.34  86.2338
 40.5496  7693.07  86.7484
 40.7476  7759.31  87.3268
 40.9456  7795.32  87.2968
 41.1436  7741.02  86.7083
 41.3416  7513.98  85.769
 41.5396  7616.81  86.1609
 41.7376  7591.89  86.2733
 41.9356  7570.73  86.0211
 42.1336  7737.09  87.0841
 42.3316  7448.39  85.6608
 42.5296  7574.29  85.901
 42.7276  7663.84  86.6505
 42.9256  7475.49  85.4504
 43.1236  7449.19  85.4062
 43.3216  7478.91  85.4301
 43.5196  7403.07  84.9485
 43.7176  7472.25  85.7292
 43.9156  7310.33  84.7337
 44.1136  7254.72  83.9733
 44.3116  7249.63  83.9554
 44.5096  7210.53  84.0326
 44.7076  7333.06  84.673
 44.9056  7513.14  85.5661
 45.1036  7288.38  83.9006
 45.3016  7231.8  84.0645
 45.4996  7299.42  84.4018
 45.6976  7046.95  83.1084
 45.8956  7238.69  84.0383
 46.0936  7338.13  84.3741
 46.2916  7346.6  84.6305
 46.4896  7387  84.9163
 46.6876  7368.14  85.5038
 46.8856  7115.66  83.4318
 47.0836  7135.4  83.6706
 47.2816  7124.1  83.493
 47.4796  7142.82  83.6915
 47.6776  7062.34  84.1697
 47.8756  7175.99  84.0199
 48.0736  7224.12  84.7378
 48.2716  7107.76  83.8924
 48.4696  7216.77  84.1117
 48.6676  7090.63  83.9682
 48.8656  7099.21  83.7477
 49.0636  7263.38  84.6467
 49.2616  6964.68  82.94
 49.4596  7081.87  83.1897
 49.6576  6977.78  82.8075
 49.8556  7048.45  83.2382
 50.0536  6930.77  82.9886
 50.2516  6980.01  83.3886
 50.4496  6940.56  82.8346
 50.6476  7065.9  83.2547
 50.8456  6987.81  82.8806
 51.0436  6782.86  82.1088
 51.2416  6779.22  81.7607
 51.4396  6641.15  81.3234
 51.6376  6711.51  81.5732
 51.8356  6748.99  81.4273
 52.0336  6709.95  81.6947
 52.2316  6817.02  82.7023
 52.4296  6695.33  81.6634
 52.6276  6771.58  82.2362
 52.8256  6720.03  81.4819
 53.0236  6778.31  82.4716
 53.2216  6619.4  81.511
 53.4196  6690.84  81.8702
 53.6176  6858.77  83.4134
 53.8156  6634.45  81.7011
 54.0136  6416.14  80.5204
 54.2116  6514.95  80.7804
 54.4096  6425.03  80.2882
 54.6076  6364.15  80.2422
 54.8056  6280.66  79.4967
 55.0036  6344.99  80.1708
 55.2016  6260.97  79.214
 55.3996  6133.33  78.4699
 55.5976  6209.95  79.1538
 55.7956  6142.07  78.5318
 55.9936  6318.43  79.7551
 56.1916  6228.41  79.246
 56.3896  6022.8  77.9048
 56.5876  6040.76  78.5644
 56.7856  6095.24  78.4205
 56.9836  6231.28  79.0599
 57.1816  6165.48  79.0016
 57.3796  5994.76  77.704
 57.5776  6077.79  78.1429
 57.7756  5963.32  78.0755
 57.9736  5941.59  77.5996
 58.1716  5901.66  77.6072
 58.3696  5686.51  75.9478
 58.5676  5805.15  76.2244
 58.7656  5755.97  76.5561
 58.9636  5688.86  76.1332
 59.1616  5651.48  76.0106
 59.3596  5722.28  75.7658
 59.5576  5710.78  75.7498
 59.7556  5667.67  75.8686
 59.9536  5773.19  76.4727
 60.1516  5580.3  76.0003
 60.1996  0.0000000E+00  0.0000000E+00