File: docs/examples/XRD/IS17_D/Data/IS17_D/17_Db_f00151.xye
# /beamlines/bl04/projects/cycle2025-II/20250340211-lsimonelli/DATA/IS17_D/17_Db_f00151.xye : mythproc.py merge -s 0.006 -l 0.5 -f /beamlines/bl04/inhouse/ff/FlatField/ff_20Nov2024rod8mm60s_17keV.raw -b True -c true -o xye /beamlines/bl04/projects/cycle2025-II/20250340211-lsimonelli/DATA/IS17_D/17_Db_00151.dat
# IsMon = [6750952, 6753038, 6754289]  IsPos = [-1.4999, -2.4883, -3.4988]
# Wave = 0.4962  CalPath /beamlines/bl04/projects/cycle2025-II/20250340211-lsimonelli/DATA/Align/Si_Pos1_25keV_f00001.cal
# Date = 2025-09-25_11:48:53 Dt = 4.8000  Bin = 0.0060  <imon> = 6752760 +/- 1376 (Min/Max) 6750952 / 6754289
# icurr 250.4989  mocoIn 1.7085E-05  mocoOut 0.8016  i15 7.07905e+06  imon 6.75276e+06  i7 4.0000  iEMpd_timer 4.8000  iEMpd_1 3.3588E-08  iEMpd_2 7.8818E-08  iEMpd_3 1.6717E-08  iEMpd_4 4.6869E-08  iEMhp_timer 4.8000  iEMhp_1 4.8922E-06  iEMhp_2 -2.5992E-08  iEMhp_3 -2.3707E-08  iEMhp_4 -1.9735E-08
#      9776
 1.7416  70811.3  266.216
 1.9396  48970.3  221.672
 2.1376  36021.4  190.114
 2.3356  31980.6  178.757
 2.5336  29750  173.017
 2.7316  27549.3  166.601
 2.9296  26186.7  162.592
 3.1276  25784.8  160.869
 3.3256  24997.5  158.075
 3.5236  26369.2  162.137
 3.7216  24353.9  157.068
 3.9196  23759.2  154.346
 4.1176  23986  154.863
 4.3156  24938.7  158.074
 4.5136  27123.2  163.82
 4.7116  28185.9  168.15
 4.9096  27354.6  165.08
 5.1076  27262.9  165.389
 5.3056  27297.8  165.211
 5.5036  27183.7  164.777
 5.7016  27756.3  166.466
 5.8996  28116.1  166.766
 6.0976  28946.6  170.638
 6.2956  29130  170.517
 6.4936  29810.3  171.69
 6.6916  30056.1  173.39
 6.8896  30887.2  175.61
 7.0876  31756.2  178.821
 7.2856  31681.1  177.648
 7.4836  31995.4  177.961
 7.6816  32694.2  180.317
 7.8796  33712.6  183.1
 8.0776  35428  188.699
 8.2756  36646.1  190.536
 8.4736  37657.7  192.955
 8.6716  36930.4  191.709
 8.8696  37601.2  193.957
 9.0676  36879.4  191.405
 9.2656  35657.9  188.915
 9.4636  34835.3  185.167
 9.6616  34224.4  184.27
 9.8596  33508.1  181.792
 10.0576  31439.6  176.753
 10.2556  30853.9  175.558
 10.4536  29644.6  171.684
 10.6516  28973.3  169.937
 10.8496  28003.6  166.469
 11.0476  27290.3  164.352
 11.2456  26579.3  162.736
 11.4436  26746.4  162.41
 11.6416  26557.8  162.176
 11.8396  25020.5  157.623
 12.0376  24592.3  155.904
 12.2356  23963.6  154.318
 12.4336  23929.3  153.755
 12.6316  24079.4  154.508
 12.8296  24047.3  154.003
 13.0276  24351.6  155.185
 13.2256  24452.9  155.878
 13.4236  24678.3  156.364
 13.6216  24864.4  156.95
 13.8196  26780.7  162.342
 14.0176  23809.5  153.654
 14.2156  23488  151.641
 14.4136  22313.3  149.191
 14.6116  22002.3  147.34
 14.8096  21259.2  144.805
 15.0076  20237.8  145.183
 15.2056  19440  138.089
 15.4036  18763.4  136.501
 15.6016  18256.6  133.732
 15.7996  17820.3  132.39
 15.9976  17389  133.69
 16.1956  17381.7  131.504
 16.3936  16738.9  128.243
 16.5916  16464.5  127.843
 16.7896  16492.7  128.002
 16.9876  16429  129.222
 17.1856  16138.4  126.457
 17.3836  15897.2  125.417
 17.5816  15575.6  124.628
 17.7796  15302.2  123.458
 17.9776  14955.1  122.815
 18.1756  15019.9  121.828
 18.3736  14801.1  121.417
 18.5716  14616.5  120.407
 18.7696  14546  119.679
 18.9676  14492.8  119.265
 19.1656  14172.4  118.525
 19.3636  14047.3  118.194
 19.5616  13965  118.02
 19.7596  14249.6  118.616
 19.9576  14406.2  119.3
 20.1556  14219.8  119.061
 20.3536  13664.9  116.099
 20.5516  13406.9  115.439
 20.7496  13067.5  113.902
 20.9476  13169.8  114.114
 21.1456  12979.7  113.605
 21.3436  13019.8  113.737
 21.5416  12891.3  113.186
 21.7396  12663.7  112.025
 21.9376  12690.8  111.913
 22.1356  12738.7  112.249
 22.3336  12447.7  111.241
 22.5316  12474.2  111.45
 22.7296  12460.6  110.761
 22.9276  12261.6  110.532
 23.1256  12482.2  110.997
 23.3236  12714  112.605
 23.5216  12620.2  111.826
 23.7196  12571  111.561
 23.9176  12534  111.143
 24.1156  12413.6  111.07
 24.3136  12090.2  110.431
 24.5116  11919.9  109.162
 24.7096  11752.9  108.216
 24.9076  11594.5  107.518
 25.1056  11368.2  106.921
 25.3036  11167.7  105.489
 25.5016  11116.3  105.28
 25.6996  11095.6  104.769
 25.8976  11086.1  105.153
 26.0956  10836.8  103.971
 26.2936  11024.5  104.534
 26.4916  11157.1  105.004
 26.6896  10815  103.704
 26.8876  10677.9  102.893
 27.0856  10569.9  102.431
 27.2836  10351  101.316
 27.4816  10380.5  101.343
 27.6796  10207.5  100.856
 27.8776  10437.1  101.846
 28.0756  10098.3  100.459
 28.2736  10163.5  100.355
 28.4716  9944.1  99.3293
 28.6696  9863.99  98.7785
 28.8676  9792.23  98.7673
 29.0656  9769.43  98.6355
 29.2636  9783.05  98.4887
 29.4616  9517.67  97.3213
 29.6596  9503.05  96.8098
 29.8576  9339.21  96.6556
 30.0556  9238.76  96.0121
 30.2536  9384.42  96.565
 30.4516  9572.92  97.1748
 30.6496  9424.46  96.1508
 30.8476  9633.18  97.6488
 31.0456  9444.77  96.6622
 31.2436  9495.98  96.1911
 31.4416  9464.77  96.2169
 31.6396  9312.09  95.4741
 31.8376  9404.8  95.4765
 32.0356  9292.45  95.4815
 32.2336  9304.12  94.9366
 32.4316  9030.29  93.886
 32.6296  8938.18  93.2832
 32.8276  8970.6  93.243
 33.0256  8880.07  92.8318
 33.2236  8935.92  93.2704
 33.4216  8910.83  92.8239
 33.6196  8777.06  92.4198
 33.8176  8815.1  92.7833
 34.0156  8795.64  92.3124
 34.2136  8799.84  92.3589
 34.4116  8520.25  91.1476
 34.6096  8673.77  91.7344
 34.8076  8585.82  91.6836
 35.0056  8531.64  91.0705
 35.2036  8714.27  92.2655
 35.4016  8465.94  90.8526
 35.5996  8420.72  90.6421
 35.7976  8306.75  90.2947
 35.9956  8674.38  91.9242
 36.1936  8448.86  90.5621
 36.3916  8364.03  90.2647
 36.5896  8269  90.7806
 36.7876  8090.71  89.1844
 36.9856  7929.52  88.3189
 37.1836  8094.99  88.3495
 37.3816  8076.95  88.6113
 37.5796  8162.22  90.8131
 37.7776  8198.78  89.3732
 37.9756  8210.96  89.3276
 38.1736  8210.98  89.515
 38.3716  8135.1  89.3783
 38.5696  7970.81  88.8472
 38.7676  7924.9  88.0989
 38.9656  7943.69  87.8381
 39.1636  7995.69  88.4006
 39.3616  8000.13  88.3501
 39.5596  7895.89  88.612
 39.7576  7827.55  87.6181
 39.9556  7982.63  88.1207
 40.1536  8035.5  88.6065
 40.3516  8003.56  88.4406
 40.5496  8015.09  88.7551
 40.7476  8063.55  89.0225
 40.9456  8074.56  88.8487
 41.1436  8030.16  88.3259
 41.3416  7865.17  87.71
 41.5396  7945.36  87.9325
 41.7376  7820.68  87.5705
 41.9356  7823.92  87.4389
 42.1336  8119.45  89.2256
 42.3316  7897.67  88.2018
 42.5296  7858.18  87.5013
 42.7276  7850.07  87.691
 42.9256  7957.8  88.1618
 43.1236  7803.04  87.4059
 43.3216  7896.99  87.6799
 43.5196  7773.15  87.0461
 43.7176  7756.48  87.3525
 43.9156  7488.39  85.7452
 44.1136  7560.38  85.7054
 44.3116  7677.19  86.381
 44.5096  7649.68  86.5418
 44.7076  7719.57  86.8646
 44.9056  7694.43  86.5955
 45.1036  7672.33  86.0902
 45.3016  7627.66  86.3417
 45.4996  7591  86.0745
 45.6976  7439.92  85.389
 45.8956  7629.21  86.2886
 46.0936  7665.94  86.4385
 46.2916  7595.08  86.0723
 46.4896  7585.57  86.0359
 46.6876  7502.14  86.3018
 46.8856  7494.16  85.4974
 47.0836  7512.61  85.8612
 47.2816  7432.27  85.279
 47.4796  7529.64  85.9461
 47.6776  7302.11  85.5818
 47.8756  7379.62  85.2013
 48.0736  7413.03  85.8594
 48.2716  7371.37  85.4597
 48.4696  7492.63  85.7352
 48.6676  7361.07  85.5556
 48.8656  7385.6  85.4215
 49.0636  7498.77  86.0179
 49.2616  7281.1  84.6828
 49.4596  7305.12  84.647
 49.6576  7351.04  84.9891
 49.8556  7396.13  85.2694
 50.0536  7244.78  84.8477
 50.2516  7369.73  85.7064
 50.4496  7325.64  85.1008
 50.6476  7332.55  84.812
 50.8456  7266.2  84.5054
 51.0436  7108.44  84.0449
 51.2416  7038.65  83.2931
 51.4396  7057.54  83.8225
 51.6376  7077.53  83.7616
 51.8356  7092.03  83.4631
 52.0336  7074.84  83.8891
 52.2316  6980.25  83.6874
 52.4296  6949.53  83.1951
 52.6276  6920.17  83.1334
 52.8256  7071.36  83.571
 53.0236  7034.29  84.0243
 53.2216  6971.8  83.6854
 53.4196  6986.1  83.667
 53.6176  6965.08  84.0588
 53.8156  6851.16  83.0259
 54.0136  6710.47  82.3486
 54.2116  6803.14  82.5439
 54.4096  6662.04  81.7566
 54.6076  6671.78  82.1585
 54.8056  6504.56  80.9026
 55.0036  6544.04  81.5587
 55.2016  6697.01  82.0067
 55.3996  6394.34  80.1166
 55.5976  6424.35  80.5124
 55.7956  6501.08  80.7946
 55.9936  6558.78  81.2804
 56.1916  6441.57  80.5843
 56.3896  6346.99  79.9787
 56.5876  6321.62  80.3727
 56.7856  6331.24  79.9325
 56.9836  6500.29  80.744
 57.1816  6410.19  80.5634
 57.3796  6286.18  79.5996
 57.5776  6332.3  79.7683
 57.7756  6227.37  79.7891
 57.9736  6259.38  79.6388
 58.1716  6123.27  79.0444
 58.3696  5923.34  77.505
 58.5676  6017.12  77.577
 58.7656  6016.02  78.2542
 58.9636  5963.12  77.9353
 59.1616  6032.87  78.5226
 59.3596  6043.2  77.8508
 59.5576  5897.56  76.9631
 59.7556  5979.46  77.9118
 59.9536  5959.4  77.6805
 60.1516  5982.82  78.6778
 60.1996  0.0000000E+00  0.0000000E+00