File: docs/examples/XRD/IS17_D/Data/IS17_D/17_Db_f00097.xye
# /beamlines/bl04/projects/cycle2025-II/20250340211-lsimonelli/DATA/IS17_D/17_Db_f00097.xye : mythproc.py merge -s 0.006 -l 0.5 -f /beamlines/bl04/inhouse/ff/FlatField/ff_20Nov2024rod8mm60s_17keV.raw -b True -c true -o xye /beamlines/bl04/projects/cycle2025-II/20250340211-lsimonelli/DATA/IS17_D/17_Db_00097.dat
# IsMon = [6773202, 6769765, 6771990]  IsPos = [-1.4999, -2.4884, -3.4988]
# Wave = 0.4962  CalPath /beamlines/bl04/projects/cycle2025-II/20250340211-lsimonelli/DATA/Align/Si_Pos1_25keV_f00001.cal
# Date = 2025-09-24_20:44:02 Dt = 4.8000  Bin = 0.0060  <imon> = 6771652 +/- 1423 (Min/Max) 6769765 / 6773202
# icurr 251.5292  mocoIn 1.7161E-05  mocoOut 0.8051  i15 7.09512e+06  imon 6.77165e+06  i7 4.0000  iEMpd_timer 4.8000  iEMpd_1 3.4248E-08  iEMpd_2 7.8294E-08  iEMpd_3 1.7243E-08  iEMpd_4 4.7783E-08  iEMhp_timer 4.8000  iEMhp_1 4.9142E-06  iEMhp_2 -2.5583E-08  iEMhp_3 -2.3993E-08  iEMhp_4 -2.1178E-08
#      9776
 1.7416  70641.3  265.83
 1.9396  49107.8  221.926
 2.1376  36107.1  190.292
 2.3356  32225.9  179.397
 2.5336  30199.4  174.276
 2.7316  27689  167.016
 2.9296  26746.8  164.302
 3.1276  25930.8  161.306
 3.3256  25292  158.986
 3.5236  26567.7  162.736
 3.7216  24449.7  157.374
 3.9196  23761.9  154.328
 4.1176  23787  154.215
 4.3156  24693.6  157.296
 4.5136  26867.4  163.052
 4.7116  28033.4  167.69
 4.9096  27361.6  165.093
 5.1076  27236.4  165.297
 5.3056  27062.9  164.502
 5.5036  27097.2  164.522
 5.7016  27372.8  165.314
 5.8996  27988  166.385
 6.0976  28715.6  169.953
 6.2956  28907.2  169.869
 6.4936  29670.9  171.28
 6.6916  29789.9  172.61
 6.8896  30520.8  174.564
 7.0876  31331.3  177.615
 7.2856  31467.6  177.053
 7.4836  31742.4  177.162
 7.6816  32438.9  179.6
 7.8796  33197.4  181.721
 8.0776  34531.8  186.32
 8.2756  36340.5  189.754
 8.4736  36769.6  190.688
 8.6716  36080.6  189.521
 8.8696  36860  192.021
 9.0676  35944.8  188.948
 9.2656  35072.4  187.335
 9.4636  34199.4  183.463
 9.6616  33487.7  182.263
 9.8596  32906.4  180.134
 10.0576  30710.9  174.701
 10.2556  29877.1  172.751
 10.4536  28893.2  169.479
 10.6516  28243.1  167.771
 10.8496  27023.4  163.525
 11.0476  26337.4  161.457
 11.2456  25558  159.583
 11.4436  25977.1  160.051
 11.6416  26206  161.101
 11.8396  24553  156.144
 12.0376  23838  153.503
 12.2356  23484.9  152.773
 12.4336  23896.5  153.649
 12.6316  23581.7  152.884
 12.8296  23593.7  152.546
 13.0276  23871  153.657
 13.2256  24140.7  154.876
 13.4236  23926.4  153.964
 13.6216  24387.1  155.433
 13.8196  26511.1  161.499
 14.0176  23543.2  152.802
 14.2156  23244.6  150.849
 14.4136  21985.6  148.084
 14.6116  21747.4  146.482
 14.8096  21049.8  144.103
 15.0076  20011.3  144.363
 15.2056  19176.3  137.168
 15.4036  18260.2  134.674
 15.6016  18044.6  132.968
 15.7996  17344.9  130.633
 15.9976  17239.5  133.108
 16.1956  16809.5  129.329
 16.3936  16585  127.644
 16.5916  16378.4  127.495
 16.7896  16232.7  126.978
 16.9876  16116.6  127.992
 17.1856  15903.3  125.532
 17.3836  15530.1  123.954
 17.5816  15155.2  122.928
 17.7796  14800.4  121.411
 17.9776  14505.9  120.961
 18.1756  14534.6  119.837
 18.3736  14225.8  119.038
 18.5716  14060.3  118.099
 18.7696  14325.6  118.772
 18.9676  14030.9  117.34
 19.1656  13681.4  116.459
 19.3636  13727.4  116.851
 19.5616  13648  116.675
 19.7596  13893.4  117.123
 19.9576  14132.6  118.171
 20.1556  14400.3  119.816
 20.3536  13586.2  115.761
 20.5516  13388.7  115.363
 20.7496  13039  113.78
 20.9476  12999.3  113.364
 21.1456  12860.9  113.093
 21.3436  12839  112.94
 21.5416  12531.4  111.59
 21.7396  12518.7  111.376
 21.9376  12486.7  111.015
 22.1356  12427.9  110.874
 22.3336  12201.1  110.146
 22.5316  12172  110.106
 22.7296  12233.8  109.752
 22.9276  12132.2  109.96
 23.1256  12207.2  109.782
 23.3236  12631.3  112.23
 23.5216  12479.6  111.192
 23.7196  12178  109.795
 23.9176  12396.2  110.519
 24.1156  12180.4  110.017
 24.3136  11807.4  109.128
 24.5116  11986.6  109.464
 24.7096  11451  106.8
 24.9076  11411.2  106.65
 25.1056  11172  105.996
 25.3036  10832.1  103.89
 25.5016  10832.7  103.933
 25.6996  10751.8  103.13
 25.8976  10924  104.374
 26.0956  10775.1  103.683
 26.2936  10757.4  103.261
 26.4916  11005.2  104.285
 26.6896  10720.9  103.242
 26.8876  10552.9  102.282
 27.0856  10395.5  101.587
 27.2836  10286.6  100.936
 27.4816  10110.1  100.012
 27.6796  10115.4  100.395
 27.8776  10373.6  101.52
 28.0756  9938.71  99.6715
 28.2736  9911.55  99.1181
 28.4716  9724.29  98.2158
 28.6696  9713.09  98.0067
 28.8676  9691.63  98.256
 29.0656  9527.61  97.398
 29.2636  9697.61  98.0562
 29.4616  9318.18  96.3098
 29.6596  9207.19  95.3101
 29.8576  9205.78  95.9765
 30.0556  9180.41  95.7165
 30.2536  9416.34  96.7401
 30.4516  9356.2  96.0585
 30.6496  9532.9  96.6958
 30.8476  9385.81  96.3819
 31.0456  9380.28  96.324
 31.2436  9319.36  95.2742
 31.4416  9295.37  95.3405
 31.6396  9168.2  94.737
 31.8376  9148.81  94.1513
 32.0356  9143.77  94.6912
 32.2336  9193.22  94.3589
 32.4316  8827.78  92.872
 32.6296  8705.65  92.0674
 32.8276  8808.54  92.3966
 33.0256  8670.27  91.7233
 33.2236  8883.17  92.994
 33.4216  8770.62  92.0963
 33.6196  8724.53  92.1493
 33.8176  8730.22  92.3365
 34.0156  8621.33  91.3894
 34.2136  8736.99  92.0211
 34.4116  8370.99  90.2457
 34.6096  8393.13  90.2369
 34.8076  8420.1  90.7964
 35.0056  8403.85  90.3804
 35.2036  8581.02  91.5526
 35.4016  8249.19  89.6759
 35.5996  8175.76  89.3206
 35.7976  8319.48  90.3591
 35.9956  8348.17  90.1736
 36.1936  8284.48  89.6748
 36.3916  8281.48  89.8602
 36.5896  8191.85  90.3571
 36.7876  8028.67  88.8526
 36.9856  7899.68  88.166
 37.1836  7891.82  87.2421
 37.3816  7902.66  87.6594
 37.5796  7972.14  89.7477
 37.7776  8082.92  88.7352
 37.9756  8001.52  88.1696
 38.1736  8038.52  88.5622
 38.3716  7959.58  88.4035
 38.5696  7889.3  88.3885
 38.7676  7754.94  87.152
 38.9656  7893.03  87.5487
 39.1636  7861.98  87.6506
 39.3616  7893.7  87.7659
 39.5596  7725.58  87.6542
 39.7576  7663.66  86.6921
 39.9556  7864.28  87.463
 40.1536  7888.81  87.785
 40.3516  7938.36  88.081
 40.5496  7861.99  87.9134
 40.7476  7946.72  88.3875
 40.9456  7902.9  87.904
 41.1436  7927.67  87.7527
 41.3416  7759.22  87.1563
 41.5396  7813.9  87.268
 41.7376  7797.72  87.4332
 41.9356  7730.59  86.9158
 42.1336  7901.91  88.0127
 42.3316  7758.45  87.4241
 42.5296  7763.48  86.9717
 42.7276  7753.99  87.1565
 42.9256  7791.27  87.2351
 43.1236  7533.6  85.8875
 43.3216  7763.6  86.9356
 43.5196  7634.8  86.2724
 43.7176  7629.61  86.6345
 43.9156  7478.42  85.7005
 44.1136  7402.46  84.8212
 44.3116  7482.69  85.2928
 44.5096  7384.55  85.0388
 44.7076  7436.03  85.2623
 44.9056  7667.94  86.4343
 45.1036  7494.03  85.078
 45.3016  7583.79  86.0795
 45.4996  7448.35  85.2572
 45.6976  7301.93  84.5935
 45.8956  7462.74  85.3363
 46.0936  7547.33  85.8115
 46.2916  7518.17  85.6369
 46.4896  7367.65  84.7911
 46.6876  7549.74  86.5724
 46.8856  7484.6  85.4421
 47.0836  7409.68  85.2649
 47.2816  7304.5  84.5466
 47.4796  7410.13  85.2493
 47.6776  7316.27  85.6736
 47.8756  7356.88  85.0769
 48.0736  7313.76  85.2803
 48.2716  7177.61  84.2976
 48.4696  7396.53  85.1536
 48.6676  7365.37  85.5756
 48.8656  7280.99  84.8155
 49.0636  7509.93  86.0812
 49.2616  7264.88  84.7093
 49.4596  7246.78  84.1526
 49.6576  7252.57  84.4101
 49.8556  7253.82  84.4457
 50.0536  7230.45  84.7573
 50.2516  7232.9  84.9027
 50.4496  7180.05  84.2528
 50.6476  7132.52  83.6501
 50.8456  7198.9  84.1188
 51.0436  7007.43  83.4492
 51.2416  7006.7  83.1181
 51.4396  6734.98  81.8946
 51.6376  6898.7  82.7069
 51.8356  6917.95  82.4424
 52.0336  6879.75  82.7106
 52.2316  6854.49  82.9229
 52.4296  6841.75  82.5456
 52.6276  6818.28  82.5142
 52.8256  6891.38  82.5034
 53.0236  6940.32  83.457
 53.2216  6916.48  83.3488
 53.4196  6797.91  82.5258
 53.6176  6768.02  82.8394
 53.8156  6860.17  83.084
 54.0136  6651.86  81.9848
 54.2116  6782.82  82.4195
 54.4096  6547.59  81.0549
 54.6076  6529.85  81.2766
 54.8056  6406.61  80.2837
 55.0036  6455.68  80.9999
 55.2016  6547.77  81.0796
 55.3996  6299.91  79.5392
 55.5976  6398.8  80.3491
 55.7956  6423.72  80.3199
 55.9936  6496.74  80.8777
 56.1916  6300.31  79.6783
 56.3896  6207.37  79.0968
 56.5876  6143.39  79.2396
 56.7856  6178.46  78.9638
 56.9836  6271.97  79.323
 57.1816  6406.82  80.5292
 57.3796  6103.59  78.4362
 57.5776  6195.26  78.9102
 57.7756  6122.61  79.1017
 57.9736  6097.4  78.6002
 58.1716  6105.46  78.9304
 58.3696  5933.23  77.5805
 58.5676  5832.11  76.3885
 58.7656  5923.66  77.6612
 58.9636  5955.34  77.8931
 59.1616  5861.16  77.4099
 59.3596  5901.19  76.9377
 59.5576  5814.99  76.4292
 59.7556  5960.82  77.7971
 59.9536  5933.79  77.5203
 60.1516  5740.39  77.074
 60.1996  0.0000000E+00  0.0000000E+00