File: docs/examples/XRD/IS17_D/Data/IS17_D/17_Db_f00124.xye
# /beamlines/bl04/projects/cycle2025-II/20250340211-lsimonelli/DATA/IS17_D/17_Db_f00124.xye : mythproc.py merge -s 0.006 -l 0.5 -f /beamlines/bl04/inhouse/ff/FlatField/ff_20Nov2024rod8mm60s_17keV.raw -b True -c true -o xye /beamlines/bl04/projects/cycle2025-II/20250340211-lsimonelli/DATA/IS17_D/17_Db_00124.dat
# IsMon = [6742867, 6761272, 6780124]  IsPos = [-1.4999, -2.4884, -3.4988]
# Wave = 0.4962  CalPath /beamlines/bl04/projects/cycle2025-II/20250340211-lsimonelli/DATA/Align/Si_Pos1_25keV_f00001.cal
# Date = 2025-09-25_04:16:56 Dt = 4.8000  Bin = 0.0060  <imon> = 6761421 +/- 15210 (Min/Max) 6742867 / 6780124
# icurr 250.1498  mocoIn 1.7078E-05  mocoOut 0.8012  i15 7.08182e+06  imon 6.76142e+06  i7 7.0000  iEMpd_timer 4.8000  iEMpd_1 3.5408E-08  iEMpd_2 7.8309E-08  iEMpd_3 1.7054E-08  iEMpd_4 4.9571E-08  iEMhp_timer 4.8000  iEMhp_1 4.9006E-06  iEMhp_2 -2.4711E-08  iEMhp_3 -2.5674E-08  iEMhp_4 -2.2679E-08
#      9776
 1.7416  69866.7  264.763
 1.9396  48714.7  221.36
 2.1376  35795.6  189.753
 2.3356  32102.1  179.319
 2.5336  29758.1  173.256
 2.7316  27068.9  165.248
 2.9296  26158.1  162.6
 3.1276  25659  160.615
 3.3256  24839.3  157.622
 3.5236  26310.8  162.018
 3.7216  24434.7  157.33
 3.9196  23743.8  154.291
 4.1176  23826  154.399
 4.3156  24784.8  157.534
 4.5136  26979.9  163.385
 4.7116  28028.2  167.679
 4.9096  27357.5  165.092
 5.1076  26978.1  164.582
 5.3056  27245.6  164.995
 5.5036  27080.3  164.467
 5.7016  27470.7  165.612
 5.8996  28065.9  166.62
 6.0976  28853.4  170.426
 6.2956  28982.2  170.04
 6.4936  29615.7  171.118
 6.6916  30090.8  173.497
 6.8896  30848  175.507
 7.0876  31840.7  179.06
 7.2856  31818.5  178.032
 7.4836  32124.4  178.24
 7.6816  33219.8  181.784
 7.8796  34106.7  184.066
 8.0776  35447.7  188.635
 8.2756  37155.9  191.693
 8.4736  37644  192.801
 8.6716  37226.4  192.399
 8.8696  37997.2  194.976
 9.0676  37167.9  192.157
 9.2656  36232.1  190.426
 9.4636  35354.1  186.462
 9.6616  34500.9  184.936
 9.8596  33716.6  182.471
 10.0576  31609  177.309
 10.2556  30813  175.553
 10.4536  29558.8  171.546
 10.6516  29301.4  171.005
 10.8496  27905.1  166.179
 11.0476  27123.9  163.854
 11.2456  26433.3  162.289
 11.4436  27033.6  163.279
 11.6416  26436.3  161.82
 11.8396  25239.4  158.367
 12.0376  24591.7  155.859
 12.2356  24237  155.195
 12.4336  24101.5  154.304
 12.6316  24185.8  154.893
 12.8296  24183.7  154.455
 13.0276  24667.9  156.155
 13.2256  24636.6  156.466
 13.4236  24689.4  156.399
 13.6216  24942.3  157.248
 13.8196  26951.5  162.896
 14.0176  23990.3  154.204
 14.2156  23572.7  151.928
 14.4136  22539.3  149.948
 14.6116  22147.6  147.833
 14.8096  21425.2  145.336
 15.0076  20501.5  146.165
 15.2056  19250.8  137.336
 15.4036  18747  136.355
 15.6016  18090.7  133.04
 15.7996  17837.7  132.342
 15.9976  17601.1  134.454
 16.1956  17056  130.298
 16.3936  16873.5  128.772
 16.5916  16686.2  128.7
 16.7896  16750.6  129.004
 16.9876  16490.9  129.496
 17.1856  16253.9  126.961
 17.3836  15867.4  125.379
 17.5816  15381.3  123.923
 17.7796  15215.5  123.185
 17.9776  14922.3  122.69
 18.1756  15074  122.047
 18.3736  14628.4  120.706
 18.5716  14617.8  120.422
 18.7696  14652.6  120.115
 18.9676  14391.8  118.89
 19.1656  14071.8  118.064
 19.3636  14093.2  118.391
 19.5616  13968.3  118.037
 19.7596  14381.2  119.2
 19.9576  14821.2  121.009
 20.1556  14250.8  119.155
 20.3536  13697.5  116.241
 20.5516  13423.4  115.511
 20.7496  13185.7  114.43
 20.9476  13311.8  114.763
 21.1456  13054.2  113.903
 21.3436  13005.1  113.675
 21.5416  12914.2  113.288
 21.7396  12715.8  112.255
 21.9376  12703.3  111.936
 22.1356  12762.8  112.356
 22.3336  12413.1  111.042
 22.5316  12538.2  111.661
 22.7296  12627.2  111.425
 22.9276  12468.4  111.391
 23.1256  12667.3  111.727
 23.3236  12658.8  112.364
 23.5216  12600.2  111.743
 23.7196  12661.8  111.966
 23.9176  12578.9  111.392
 24.1156  12273.6  110.449
 24.3136  12005.3  110.11
 24.5116  12135.5  110.211
 24.7096  11751.4  108.283
 24.9076  11604.5  107.654
 25.1056  11280.2  106.583
 25.3036  11159.7  105.45
 25.5016  11091.2  105.162
 25.6996  11069.6  104.643
 25.8976  11144.7  105.461
 26.0956  10966.4  104.557
 26.2936  11071.6  104.757
 26.4916  11200.2  105.226
 26.6896  10828  103.761
 26.8876  10763.5  103.343
 27.0856  10622.9  102.66
 27.2836  10452.5  101.754
 27.4816  10302  100.95
 27.6796  10413.6  101.872
 27.8776  10546.8  102.412
 28.0756  10171.9  100.806
 28.2736  10069.5  99.9087
 28.4716  9917.53  99.198
 28.6696  10033.9  99.6278
 28.8676  9837.65  98.9983
 29.0656  9744.92  98.503
 29.2636  9794.98  98.5774
 29.4616  9523.14  97.2905
 29.6596  9598.21  97.2407
 29.8576  9281.51  96.2988
 30.0556  9343.34  96.4743
 30.2536  9536.13  97.2808
 30.4516  9615.61  97.3904
 30.6496  9568.06  96.8857
 30.8476  9599.14  97.4778
 31.0456  9542.77  97.2086
 31.2436  9517.63  96.3412
 31.4416  9343.85  95.6613
 31.6396  9478.63  96.393
 31.8376  9439.46  95.7126
 32.0356  9356.19  95.8715
 32.2336  9257.21  94.7825
 32.4316  9072.73  94.1535
 32.6296  9011.28  93.6677
 32.8276  9011.01  93.4529
 33.0256  8948.33  93.194
 33.2236  8991.95  93.5986
 33.4216  8960.32  93.064
 33.6196  8912.44  93.134
 33.8176  8928.83  93.3853
 34.0156  8786.19  92.2615
 34.2136  8834.74  92.5611
 34.4116  8594.94  91.4167
 34.6096  8683.46  91.7894
 34.8076  8494.82  91.1999
 35.0056  8621.87  91.5464
 35.2036  8753.26  92.5058
 35.4016  8462.94  90.8123
 35.5996  8501.2  91.0772
 35.7976  8408.15  90.8528
 35.9956  8550.01  91.2627
 36.1936  8483.15  90.7537
 36.3916  8361.04  90.2952
 36.5896  8298.01  90.9609
 36.7876  8137.46  89.391
 36.9856  8045.03  88.9022
 37.1836  8148.74  88.5878
 37.3816  8100.8  88.6693
 37.5796  8197.73  91.0114
 37.7776  8232.93  89.603
 37.9756  8136.04  88.9573
 38.1736  8243.44  89.6995
 38.3716  8278.78  90.1693
 38.5696  7831.18  88.0629
 38.7676  7910.32  88.0809
 38.9656  8066.76  88.5769
 39.1636  8032.4  88.6774
 39.3616  7979.47  88.2801
 39.5596  7879.36  88.5142
 39.7576  7907.83  88.0681
 39.9556  7965.04  88.0239
 40.1536  8086.65  88.89
 40.3516  8080.76  88.8694
 40.5496  8008.77  88.7245
 40.7476  8047.79  88.9501
 40.9456  8103.39  89.0088
 41.1436  8084.4  88.6558
 41.3416  7852.16  87.6522
 41.5396  8014.38  88.3802
 41.7376  7941.54  88.2482
 41.9356  7886.4  87.7966
 42.1336  8084.9  89.065
 42.3316  7930.44  88.3605
 42.5296  7854.42  87.4832
 42.7276  7878.92  87.8601
 42.9256  7884.89  87.762
 43.1236  7861.49  87.7388
 43.3216  7951.56  87.9764
 43.5196  7742.31  86.904
 43.7176  7862.56  87.9549
 43.9156  7581.41  86.2221
 44.1136  7576.62  85.7509
 44.3116  7593.69  85.8397
 44.5096  7594.36  86.1751
 44.7076  7686.73  86.6266
 44.9056  7836.88  87.3928
 45.1036  7606.13  85.7201
 45.3016  7721.8  86.8763
 45.4996  7743.14  86.9337
 45.6976  7535.54  85.9014
 45.8956  7560.33  85.9521
 46.0936  7685.71  86.685
 46.2916  7689.31  86.6645
 46.4896  7605.96  86.2145
 46.6876  7579.2  86.7878
 46.8856  7546.1  85.7978
 47.0836  7471.78  85.6622
 47.2816  7486.8  85.594
 47.4796  7594.43  86.3126
 47.6776  7374.23  86.0023
 47.8756  7376.3  85.1852
 48.0736  7448.66  86.0666
 48.2716  7342.74  85.2465
 48.4696  7553.2  86.0601
 48.6676  7467.7  86.1776
 48.8656  7516.47  86.1731
 49.0636  7533.89  86.2455
 49.2616  7301.25  84.8914
 49.4596  7336.2  84.6761
 49.6576  7385.04  85.1847
 49.8556  7376.97  85.1609
 50.0536  7345.83  85.4345
 50.2516  7334.47  85.5037
 50.4496  7292.1  84.9039
 50.6476  7359.08  84.9712
 50.8456  7348.53  84.9927
 51.0436  7031.82  83.5397
 51.2416  7110.02  83.653
 51.4396  7086.2  83.9407
 51.6376  7101.6  83.8685
 51.8356  7084.29  83.3871
 52.0336  7022.55  83.5818
 52.2316  7002.68  83.8145
 52.4296  6989.23  83.3953
 52.6276  6976.9  83.4312
 52.8256  7067.16  83.5617
 53.0236  7094.44  84.4377
 53.2216  7043.53  84.168
 53.4196  6904.08  83.2246
 53.6176  6906.36  83.7597
 53.8156  6930.04  83.5631
 54.0136  6739.34  82.5058
 54.2116  6846.32  82.8367
 54.4096  6654.93  81.7161
 54.6076  6651.69  82.0434
 54.8056  6682.23  82.0087
 55.0036  6614.16  82.0059
 55.2016  6711.35  82.1226
 55.3996  6458.49  80.5
 55.5976  6462.44  80.7587
 55.7956  6571.43  81.2335
 55.9936  6599.6  81.568
 56.1916  6436.77  80.564
 56.3896  6326.98  79.8306
 56.5876  6383.22  80.7593
 56.7856  6436.72  80.6045
 56.9836  6383.28  80.0631
 57.1816  6459.09  80.9059
 57.3796  6314.51  79.7819
 57.5776  6423.28  80.3486
 57.7756  6294.04  80.2113
 57.9736  6257.82  79.6314
 58.1716  6160.57  79.2612
 58.3696  6036.52  78.2104
 58.5676  6026.18  77.6154
 58.7656  6007.9  78.1545
 58.9636  6011.33  78.2086
 59.1616  6037.63  78.5093
 59.3596  6134.6  78.3378
 59.5576  5877.66  76.7358
 59.7556  5936.82  77.5351
 59.9536  6164.87  78.9082
 60.1516  5967.67  78.4785
 60.1996  0.0000000E+00  0.0000000E+00