File: docs/examples/XRD/IS17_D/Data/IS17_D/17_Da_f00014.xye
# /beamlines/bl04/projects/cycle2025-II/20250340211-lsimonelli/DATA/IS17_D/17_Da_f00014.xye : mythproc.py merge -s 0.006 -l 0.5 -f /beamlines/bl04/inhouse/ff/FlatField/ff_20Nov2024rod8mm60s_17keV.raw -b True -c true -o xye /beamlines/bl04/projects/cycle2025-II/20250340211-lsimonelli/DATA/IS17_D/17_Da_00014.dat
# IsMon = [6764744, 6767932, 6768333]  IsPos = [-1.5000, -2.4885, -3.4986]
# Wave = 0.4962  CalPath /beamlines/bl04/projects/cycle2025-II/20250340211-lsimonelli/DATA/Align/Si_Pos1_25keV_f00001.cal
# Date = 2025-09-23_21:26:14 Dt = 4.8000  Bin = 0.0060  <imon> = 6767003 +/- 1606 (Min/Max) 6764744 / 6768333
# icurr 251.1330  mocoIn 1.7134E-05  mocoOut 0.8039  i15 7.07973e+06  imon 6.767e+06  i7 5.6667  iEMpd_timer 4.8000  iEMpd_1 3.4543E-08  iEMpd_2 7.7303E-08  iEMpd_3 1.7566E-08  iEMpd_4 4.7483E-08  iEMhp_timer 4.8000  iEMhp_1 4.9069E-06  iEMhp_2 -2.4642E-08  iEMhp_3 -2.4633E-08  iEMhp_4 -2.1653E-08
#      9776
 1.7416  67894.7  260.684
 1.9396  43511.1  208.956
 2.1376  30342  174.49
 2.3356  27234.9  164.967
 2.5336  29465.6  172.194
 2.7316  24053.7  155.662
 2.9296  22424.6  150.464
 3.1276  22141.4  149.079
 3.3256  21830  147.7
 3.5236  23671.4  153.756
 3.7216  21609.5  147.961
 3.9196  21612.7  147.221
 4.1176  21003.9  144.919
 4.3156  22286.1  149.43
 4.5136  25814.4  159.819
 4.7116  26285  162.388
 4.9096  25432  159.177
 5.1076  24789.2  157.719
 5.3056  25149.1  158.489
 5.5036  24577.4  156.688
 5.7016  24869.9  157.578
 5.8996  25583.3  159.061
 6.0976  26418.5  163.04
 6.2956  26863.3  163.753
 6.4936  27608.2  165.236
 6.6916  28119.6  167.723
 6.8896  29172.2  170.694
 7.0876  29784.9  173.11
 7.2856  29538.6  171.553
 7.4836  30588  173.921
 7.6816  31106.4  175.913
 7.8796  32550.1  179.931
 8.0776  37164.7  193.266
 8.2756  36898  191.169
 8.4736  36578.4  190.164
 8.6716  35875.2  188.95
 8.8696  36943  192.238
 9.0676  36004.6  189.139
 9.2656  33407.7  182.858
 9.4636  33196.9  180.725
 9.6616  32392.5  179.277
 9.8596  31051.1  175.015
 10.0576  29464.3  171.129
 10.2556  28438.3  168.548
 10.4536  33969.9  183.786
 10.6516  35100.1  187.035
 10.8496  26264.9  161.215
 11.0476  26770.8  162.734
 11.2456  29989.1  172.856
 11.4436  25743.8  159.334
 11.6416  24803.3  156.751
 11.8396  23842.3  153.888
 12.0376  23237.7  151.544
 12.2356  25262.9  158.477
 12.4336  24228.3  154.714
 12.6316  22557.5  149.546
 12.8296  23334.4  151.74
 13.0276  23619  152.831
 13.2256  23163.5  151.71
 13.4236  23352.6  152.094
 13.6216  23281.3  151.892
 13.8196  24285.9  154.9
 14.0176  23154.9  151.523
 14.2156  22637.8  148.895
 14.4136  21224  145.505
 14.6116  21024.5  144.04
 14.8096  20232.3  141.287
 15.0076  19498.5  142.441
 15.2056  18816.7  135.86
 15.4036  18288  134.741
 15.6016  17596.2  131.287
 15.7996  17485.5  131.148
 15.9976  16502.4  130.27
 16.1956  16182.1  126.934
 16.3936  15854.4  124.838
 16.5916  15863.4  125.497
 16.7896  15628.9  124.622
 16.9876  15512.7  125.589
 17.1856  15620.2  124.404
 17.3836  14427  119.466
 17.5816  14540  120.414
 17.7796  14543.3  120.354
 17.9776  14737.7  121.944
 18.1756  16192.5  126.464
 18.3736  15806.3  125.482
 18.5716  14135.2  118.417
 18.7696  14118.8  117.927
 18.9676  13553.8  115.356
 19.1656  13557.3  115.919
 19.3636  13460.9  115.701
 19.5616  13513.7  116.094
 19.7596  13430.3  115.157
 19.9576  13933.4  117.341
 20.1556  13194.6  114.693
 20.3536  12905.6  112.832
 20.5516  12799.1  112.801
 20.7496  12444.6  111.084
 20.9476  13042.8  113.564
 21.1456  13271.4  114.881
 21.3436  12573.6  111.77
 21.5416  12423.1  111.102
 21.7396  12142.4  109.685
 21.9376  12371.4  110.493
 22.1356  12566.5  111.511
 22.3336  12497.4  111.439
 22.5316  12294.2  110.631
 22.7296  12016.7  108.752
 22.9276  11934  109.039
 23.1256  12547.1  111.281
 23.3236  12102.4  109.857
 23.5216  12087.8  109.448
 23.7196  11921  108.857
 23.9176  11830.3  107.988
 24.1156  11874.4  108.651
 24.3136  11568  108.022
 24.5116  11654.5  107.955
 24.7096  11521.6  107.158
 24.9076  11169.7  105.529
 25.1056  11054.4  105.173
 25.3036  10735  103.425
 25.5016  10890.2  104.202
 25.6996  10739.9  103.069
 25.8976  10988.1  104.7
 26.0956  10932.9  104.448
 26.2936  10621.7  102.603
 26.4916  10697.7  102.853
 26.6896  10356.6  101.489
 26.8876  10251.9  100.832
 27.0856  10378.7  101.459
 27.2836  10096.8  100.166
 27.4816  10211  100.5
 27.6796  9922.7  99.4495
 27.8776  10277.2  101.071
 28.0756  9949.31  99.7218
 28.2736  10019.5  99.6611
 28.4716  9740.1  98.3071
 28.6696  9693.83  97.9194
 28.8676  9625.61  97.9249
 29.0656  9429.67  96.8972
 29.2636  9446.38  96.7007
 29.4616  9337.54  96.3944
 29.6596  9408.88  96.3326
 29.8576  9226.69  96.072
 30.0556  9617.31  97.953
 30.2536  9199.52  95.6074
 30.4516  9166.38  95.1038
 30.6496  9192.88  94.9715
 30.8476  9129.23  95.0787
 31.0456  9007.17  94.4058
 31.2436  9005.07  93.6782
 31.4416  8872.92  93.1584
 31.6396  9476.44  96.3233
 31.8376  8972.93  93.2829
 32.0356  9023.77  94.1085
 32.2336  8760.38  92.1282
 32.4316  8820.42  92.8315
 32.6296  8722.8  92.0944
 32.8276  8810.11  92.3933
 33.0256  8619.6  91.4706
 33.2236  8615.56  91.5916
 33.4216  8671.13  91.5723
 33.6196  8608.91  91.536
 33.8176  8658.14  91.9661
 34.0156  8503.99  90.7605
 34.2136  8414.97  90.3263
 34.4116  8382.88  90.2932
 34.6096  8422.46  90.3956
 34.8076  8252.73  89.8775
 35.0056  8397.33  90.3572
 35.2036  8293.22  89.9977
 35.4016  8357.31  90.2696
 35.5996  8224.5  89.5844
 35.7976  8115.96  89.2631
 35.9956  8170.96  89.2132
 36.1936  8151.32  88.9774
 36.3916  8030.34  88.4864
 36.5896  8227.31  90.9994
 36.7876  8218.19  89.8889
 36.9856  7869.29  87.9875
 37.1836  7979.2  87.7109
 37.3816  8002.15  88.1994
 37.5796  7789.58  88.7091
 37.7776  7806.87  87.2186
 37.9756  7818.63  87.1652
 38.1736  8016.2  88.4571
 38.3716  7962.71  88.4344
 38.5696  7701.84  87.3438
 38.7676  7655.92  86.5966
 38.9656  7759.45  86.8214
 39.1636  7716.6  86.811
 39.3616  7799.23  87.2363
 39.5596  7620.8  87.0653
 39.7576  7621.29  86.4452
 39.9556  7690.46  86.4879
 40.1536  7848.62  87.5755
 40.3516  7866.02  87.7605
 40.5496  7739.25  87.0112
 40.7476  7778.12  87.4539
 40.9456  7929.07  88.0425
 41.1436  7801.65  87.0641
 41.3416  7705.37  86.8516
 41.5396  7671.2  86.4689
 41.7376  7677.09  86.7621
 41.9356  7658.94  86.525
 42.1336  7641.23  86.5724
 42.3316  7660.35  86.87
 42.5296  7683.98  86.5265
 42.7276  7741.07  87.0866
 42.9256  7648.58  86.4397
 43.1236  7578.07  86.1448
 43.3216  7612.27  86.1951
 43.5196  7521.79  85.6416
 43.7176  7428.65  85.4952
 43.9156  7412.73  85.309
 44.1136  7341.97  84.4637
 44.3116  7386.48  84.7308
 44.5096  7338.53  84.762
 44.7076  7314.12  84.5512
 44.9056  7310.71  84.4092
 45.1036  7266.55  83.7882
 45.3016  7153.83  83.6239
 45.4996  7127.68  83.4109
 45.6976  6993.53  82.7913
 45.8956  7192.76  83.7843
 46.0936  7148.74  83.2939
 46.2916  7105.7  83.2581
 46.4896  7164.19  83.6367
 46.6876  7132.84  84.1522
 46.8856  6930.31  82.34
 47.0836  7027.8  83.0474
 47.2816  6821.42  81.6986
 47.4796  6903.75  82.2854
 47.6776  6826.53  82.7521
 47.8756  6930.1  82.5716
 48.0736  6881.12  82.7017
 48.2716  6726.18  81.6055
 48.4696  6858.78  82.0106
 48.6676  6814.94  82.3259
 48.8656  6866.82  82.3607
 49.0636  6886.5  82.4327
 49.2616  6614.51  80.8191
 49.4596  6681.5  80.8085
 49.6576  6604.01  80.5571
 49.8556  6686.12  81.0738
 50.0536  6625.64  81.1383
 50.2516  6573.85  80.9318
 50.4496  6610.32  80.839
 50.6476  6662.57  80.8486
 50.8456  6579.09  80.4218
 51.0436  6451.98  80.0703
 51.2416  6484.01  79.9485
 51.4396  6339.18  79.4409
 51.6376  6269.66  78.8216
 51.8356  6347.76  78.9639
 52.0336  6222.23  78.6752
 52.2316  6190.63  78.815
 52.4296  6286.75  79.1204
 52.6276  6409.77  80.0081
 52.8256  6364.94  79.2753
 53.0236  6187.55  78.8059
 53.2216  6191.15  78.8361
 53.4196  6128.5  78.3882
 53.6176  6101.83  78.6837
 53.8156  6037.47  77.9514
 54.0136  6106.85  78.5643
 54.2116  6051.37  77.8752
 54.4096  6151.79  78.5642
 54.6076  6023.99  78.0876
 54.8056  5979.26  77.5908
 55.0036  5908.42  77.3914
 55.2016  6069.21  78.0402
 55.3996  5975.4  77.4735
 55.5976  5962.98  77.5758
 55.7956  6014.73  77.7385
 55.9936  6041.9  78.0438
 56.1916  6035.73  78.0205
 56.3896  6058.97  78.1573
 56.5876  5872.37  77.4872
 56.7856  5893.29  77.1178
 56.9836  5906.79  77.0003
 57.1816  5964.58  77.7477
 57.3796  5970.88  77.5579
 57.5776  5980.64  77.5865
 57.7756  5850.2  77.3537
 57.9736  5905.99  77.4021
 58.1716  5979.32  78.1105
 58.3696  6042.06  78.2696
 58.5676  5925.26  76.9998
 58.7656  5970.92  77.9599
 58.9636  6037.27  78.4245
 59.1616  5905.31  77.6856
 59.3596  6102.02  78.2297
 59.5576  6025.12  77.7922
 59.7556  5901.86  77.4057
 59.9536  6082.97  78.483
 60.1516  5918.28  78.2534
 60.1996  0.0000000E+00  0.0000000E+00