File: docs/examples/XRD/IS17_D/Data/IS17_D/17_Da_f00005.xye
# /beamlines/bl04/projects/cycle2025-II/20250340211-lsimonelli/DATA/IS17_D/17_Da_f00005.xye : mythproc.py merge -s 0.006 -l 0.5 -f /beamlines/bl04/inhouse/ff/FlatField/ff_20Nov2024rod8mm60s_17keV.raw -b True -c true -o xye /beamlines/bl04/projects/cycle2025-II/20250340211-lsimonelli/DATA/IS17_D/17_Da_00005.dat
# IsMon = [6785682, 6787489, 6790037]  IsPos = [-1.5000, -2.4885, -3.4988]
# Wave = 0.4962  CalPath /beamlines/bl04/projects/cycle2025-II/20250340211-lsimonelli/DATA/Align/Si_Pos1_25keV_f00001.cal
# Date = 2025-09-23_18:57:26 Dt = 4.8000  Bin = 0.0060  <imon> = 6787736 +/- 1786 (Min/Max) 6785682 / 6790037
# icurr 253.2008  mocoIn 1.7277E-05  mocoOut 0.8103  i15 7.09459e+06  imon 6.78774e+06  i7 3.6667  iEMpd_timer 4.8000  iEMpd_1 3.5071E-08  iEMpd_2 7.8109E-08  iEMpd_3 1.5490E-08  iEMpd_4 4.7878E-08  iEMhp_timer 4.8000  iEMhp_1 4.9464E-06  iEMhp_2 -2.4584E-08  iEMhp_3 -2.3261E-08  iEMhp_4 -2.0764E-08
#      9776
 1.7416  70591.9  265.808
 1.9396  45848.3  214.482
 2.1376  32041.2  179.306
 2.3356  28284.5  168.113
 2.5336  26381.1  162.93
 2.7316  24856.3  158.248
 2.9296  23662.1  154.565
 3.1276  23367.9  153.155
 3.3256  23127.2  152.033
 3.5236  25147.4  158.485
 3.7216  23036.7  152.768
 3.9196  22380.2  149.817
 4.1176  22239.6  149.114
 4.3156  23705.3  154.108
 4.5136  25998.7  160.392
 4.7116  26940.8  164.399
 4.9096  26259.3  161.745
 5.1076  25890.9  161.185
 5.3056  26374.8  162.408
 5.5036  26000.7  161.238
 5.7016  26382.8  162.299
 5.8996  26974.5  163.334
 6.0976  27556.6  166.509
 6.2956  28234.2  167.88
 6.4936  29027.7  169.417
 6.6916  29341  171.326
 6.8896  30258.1  173.838
 7.0876  31224.1  177.245
 7.2856  30992.9  175.724
 7.4836  31507.7  176.522
 7.6816  32320.3  179.314
 7.8796  33984.4  183.849
 8.0776  35164.9  187.994
 8.2756  36920.8  191.227
 8.4736  37557.7  192.685
 8.6716  36839.4  191.479
 8.8696  36423.7  190.862
 9.0676  35758.1  188.485
 9.2656  35014.8  187.197
 9.4636  34458.9  184.12
 9.6616  33850.9  183.264
 9.8596  32273.8  178.43
 10.0576  30749.1  174.825
 10.2556  29652.9  172.111
 10.4536  28489.6  168.315
 10.6516  27731.1  166.248
 10.8496  27104.1  163.769
 11.0476  26327.7  161.384
 11.2456  25726.2  160.107
 11.4436  26271.4  160.95
 11.6416  25684.4  159.506
 11.8396  24241.4  155.167
 12.0376  24146.2  154.48
 12.2356  23508.4  152.872
 12.4336  23593.6  152.669
 12.6316  23295.9  151.974
 12.8296  23584.1  152.544
 13.0276  24216.5  154.757
 13.2256  24156.1  154.93
 13.4236  23976.5  154.12
 13.6216  23884.6  153.846
 13.8196  23834.2  153.452
 14.0176  23462.6  152.524
 14.2156  23090.5  150.371
 14.4136  21945  147.953
 14.6116  21568.2  145.894
 14.8096  20965.6  143.821
 15.0076  19720.6  143.246
 15.2056  19418.2  138.014
 15.4036  18434.4  135.292
 15.6016  18235.4  133.653
 15.7996  17732.3  132.069
 15.9976  17034  132.341
 16.1956  16498.3  128.162
 16.3936  16178.2  126.098
 16.5916  16151.3  126.626
 16.7896  16071.7  126.37
 16.9876  15860.5  126.993
 17.1856  15493.8  123.908
 17.3836  15239.4  122.774
 17.5816  14682.4  121.004
 17.7796  14656.5  120.822
 17.9776  14394.3  120.514
 18.1756  14451.7  119.483
 18.3736  14209.6  118.978
 18.5716  14009.9  117.893
 18.7696  13972.7  117.315
 18.9676  13811.2  116.446
 19.1656  13798.4  116.94
 19.3636  13787.9  117.098
 19.5616  13611.9  116.512
 19.7596  13779.2  116.644
 19.9576  14262  118.718
 20.1556  13975.7  118.039
 20.3536  13425  115.075
 20.5516  13133.4  114.266
 20.7496  12749.3  112.438
 20.9476  12704.6  112.082
 21.1456  12834.7  112.971
 21.3436  12816.7  112.846
 21.5416  12668.4  112.189
 21.7396  12483  111.212
 21.9376  12493.1  111.012
 22.1356  12458.3  111.155
 22.3336  12397.4  110.994
 22.5316  12480.1  111.467
 22.7296  12430.1  110.619
 22.9276  12424.8  111.261
 23.1256  12643.6  111.708
 23.3236  12469.3  111.496
 23.5216  12324.1  110.509
 23.7196  12159.1  109.926
 23.9176  12101.8  109.217
 24.1156  11994.2  109.193
 24.3136  11439.7  107.424
 24.5116  11629.6  107.844
 24.7096  11364.1  106.426
 24.9076  11131.2  105.354
 25.1056  10963.3  104.746
 25.3036  10903.5  104.235
 25.5016  10739.9  103.487
 25.6996  10781  103.265
 25.8976  10688.7  103.257
 26.0956  10752.8  103.578
 26.2936  10927.5  104.066
 26.4916  10772.7  103.212
 26.6896  10515.3  102.264
 26.8876  10338.9  101.257
 27.0856  10463.9  101.872
 27.2836  10186.6  100.455
 27.4816  10156  100.239
 27.6796  10126.6  100.464
 27.8776  9907.59  99.2358
 28.0756  9971.75  99.8345
 28.2736  9933.12  99.2284
 28.4716  9721.52  98.2139
 28.6696  9798.59  98.4529
 28.8676  9584.41  97.7118
 29.0656  9510.07  97.3139
 29.2636  9493.42  96.9447
 29.4616  9437.28  96.9106
 29.6596  9516.75  96.886
 29.8576  9375.83  96.846
 30.0556  9354.38  96.6074
 30.2536  9555.24  97.439
 30.4516  9322.1  95.9066
 30.6496  9393.65  96.0021
 30.8476  9263.21  95.7708
 31.0456  9119.08  94.9894
 31.2436  9109.4  94.2112
 31.4416  9030.07  93.9822
 31.6396  8961.2  93.6721
 31.8376  8987.98  93.3612
 32.0356  9013.72  94.0585
 32.2336  8944.88  93.0904
 32.4316  8920.99  93.3646
 32.6296  9025.77  93.6811
 32.8276  8847.73  92.5972
 33.0256  8733.75  92.0719
 33.2236  8739.11  92.246
 33.4216  8822.48  92.3743
 33.6196  8701.27  92.0291
 33.8176  8782.57  92.6206
 34.0156  8664.73  91.6192
 34.2136  8555.14  91.0763
 34.4116  8429.45  90.5523
 34.6096  8474.35  90.6675
 34.8076  8348.7  90.4032
 35.0056  8389.51  90.3158
 35.2036  8330.34  90.2022
 35.4016  8296.18  89.9416
 35.5996  8334.56  90.1835
 35.7976  8181.35  89.6203
 35.9956  8272.83  89.7668
 36.1936  8243.03  89.4752
 36.3916  8138.2  89.0786
 36.5896  8080.07  90.1819
 36.7876  8215.55  89.8747
 36.9856  7999.95  88.7155
 37.1836  8090.93  88.3266
 37.3816  8087.87  88.6702
 37.5796  8029.1  90.0572
 37.7776  7926.97  87.8784
 37.9756  7848.75  87.3329
 38.1736  8078.09  88.7954
 38.3716  8031.33  88.8114
 38.5696  7845.97  88.1581
 38.7676  7750.72  87.1355
 38.9656  7818.12  87.1517
 39.1636  7751.89  87.0141
 39.3616  7863.41  87.5938
 39.5596  7715.16  87.6003
 39.7576  7695.31  86.8675
 39.9556  7736.51  86.7465
 40.1536  7897.11  87.8415
 40.3516  7892.41  87.8295
 40.5496  7982.15  88.3771
 40.7476  7925.68  88.2712
 40.9456  7895.36  87.8603
 41.1436  7809.77  87.1051
 41.3416  7814.64  87.4643
 41.5396  7756.96  86.9488
 41.7376  7872.99  87.8662
 41.9356  7701.08  86.7617
 42.1336  7807.62  87.5083
 42.3316  7693.95  87.061
 42.5296  7670.09  86.4497
 42.7276  7625.62  86.436
 42.9256  7841.37  87.5137
 43.1236  7688.79  86.7712
 43.3216  7657.57  86.4516
 43.5196  7517.18  85.619
 43.7176  7603.92  86.4963
 43.9156  7455.88  85.5607
 44.1136  7510.76  85.4298
 44.3116  7498.09  85.3657
 44.5096  7435.56  85.3206
 44.7076  7490.7  85.5664
 44.9056  7454.63  85.2334
 45.1036  7333.16  84.1678
 45.3016  7347.87  84.748
 45.4996  7240.75  84.0669
 45.6976  7142.76  83.6649
 45.8956  7254.83  84.1477
 46.0936  7252.81  83.8994
 46.2916  7220.63  83.9338
 46.4896  7345.01  84.6911
 46.6876  7113.66  84.0445
 46.8856  7017.67  82.7364
 47.0836  7071.15  83.3056
 47.2816  7065.18  83.1433
 47.4796  7028.95  83.038
 47.6776  6937.1  83.4135
 47.8756  6927.28  82.5536
 48.0736  7032.83  83.6299
 48.2716  6860.68  82.4198
 48.4696  7095.17  83.4025
 48.6676  6963.8  83.2137
 48.8656  6916.44  82.6628
 49.0636  6895.55  82.4823
 49.2616  6683.91  81.2384
 49.4596  6839.84  81.756
 49.6576  6772.1  81.5654
 49.8556  6734.64  81.3681
 50.0536  6754.25  81.9239
 50.2516  6678.06  81.5684
 50.4496  6671.78  81.2156
 50.6476  6754.52  81.3995
 50.8456  6666.22  80.9497
 51.0436  6528.52  80.5444
 51.2416  6439.92  79.6761
 51.4396  6358.37  79.5501
 51.6376  6452.84  79.9751
 51.8356  6426.06  79.45
 52.0336  6441.04  80.0404
 52.2316  6421.46  80.2659
 52.4296  6384.63  79.7133
 52.6276  6342.62  79.5804
 52.8256  6358.49  79.2575
 53.0236  6194.19  78.8517
 53.2216  6208.86  78.9576
 53.4196  6155.44  78.5627
 53.6176  6249.39  79.6327
 53.8156  6191.01  78.9295
 54.0136  6256.86  79.5191
 54.2116  6112.33  78.2671
 54.4096  6148.83  78.5445
 54.6076  6103.45  78.6047
 54.8056  6061.13  78.1224
 55.0036  6045.83  78.2873
 55.2016  6209.14  78.9338
 55.3996  6129.52  78.4677
 55.5976  6185.22  79.0131
 55.7956  6075.3  78.1251
 55.9936  6121.44  78.55
 56.1916  6045.83  78.0872
 56.3896  6065.24  78.1989
 56.5876  6035.91  78.5553
 56.7856  6032.18  78.0129
 56.9836  6018.91  77.7242
 57.1816  5989.19  77.9054
 57.3796  6003.67  77.8015
 57.5776  6044.51  77.9997
 57.7756  6013.83  78.4266
 57.9736  5973.56  77.8425
 58.1716  6042.92  78.5273
 58.3696  5927.25  77.5237
 58.5676  6035.28  77.6996
 58.7656  6005.3  78.1801
 58.9636  6122.73  78.9772
 59.1616  6090.64  78.8964
 59.3596  6198.46  78.8402
 59.5576  6210.35  78.9732
 59.7556  6020.14  78.172
 59.9536  6101.85  78.5991
 60.1516  6079.71  79.3078
 60.1996  0.0000000E+00  0.0000000E+00