File: docs/examples/XRD/IS17_D/Data/IS17_D/17_Db_f00078.xye
# /beamlines/bl04/projects/cycle2025-II/20250340211-lsimonelli/DATA/IS17_D/17_Db_f00078.xye : mythproc.py merge -s 0.006 -l 0.5 -f /beamlines/bl04/inhouse/ff/FlatField/ff_20Nov2024rod8mm60s_17keV.raw -b True -c true -o xye /beamlines/bl04/projects/cycle2025-II/20250340211-lsimonelli/DATA/IS17_D/17_Db_00078.dat
# IsMon = [6767585, 6769382, 6769255]  IsPos = [-1.4999, -2.4884, -3.4988]
# Wave = 0.4962  CalPath /beamlines/bl04/projects/cycle2025-II/20250340211-lsimonelli/DATA/Align/Si_Pos1_25keV_f00001.cal
# Date = 2025-09-24_15:26:17 Dt = 4.8000  Bin = 0.0060  <imon> = 6768741 +/- 819 (Min/Max) 6767585 / 6769382
# icurr 251.0791  mocoIn 1.7117E-05  mocoOut 0.8031  i15 7.08837e+06  imon 6.76874e+06  i7 6.0000  iEMpd_timer 4.8000  iEMpd_1 3.3851E-08  iEMpd_2 7.8177E-08  iEMpd_3 1.7044E-08  iEMpd_4 4.5844E-08  iEMhp_timer 4.8000  iEMhp_1 4.9040E-06  iEMhp_2 -2.5043E-08  iEMhp_3 -2.3834E-08  iEMhp_4 -2.0979E-08
#      9776
 1.7416  69034.2  262.841
 1.9396  47299.8  217.844
 2.1376  34672.3  186.511
 2.3356  31150.4  176.413
 2.5336  30330.8  174.689
 2.7316  26656.3  163.872
 2.9296  25295.3  159.787
 3.1276  24653  157.303
 3.3256  24152.6  155.345
 3.5236  25480.4  159.367
 3.7216  23480.8  154.22
 3.9196  23276.6  152.749
 4.1176  22992.6  151.619
 4.3156  24007.3  155.093
 4.5136  26870.4  163.054
 4.7116  27793.9  166.972
 4.9096  26782.1  163.335
 5.1076  26453.3  162.917
 5.3056  26435.6  162.576
 5.5036  26310.9  162.112
 5.7016  26629.3  163.054
 5.8996  27013.5  163.462
 6.0976  28095.4  168.114
 6.2956  28167.2  167.677
 6.4936  29168.1  169.821
 6.6916  29106.5  170.627
 6.8896  30267.3  173.841
 7.0876  31183.2  177.201
 7.2856  30899  175.443
 7.4836  31637  176.878
 7.6816  32099.4  178.679
 7.8796  33054.5  181.324
 8.0776  36621.4  191.856
 8.2756  36801.8  190.944
 8.4736  36698.2  190.483
 8.6716  36314.8  190.107
 8.8696  37585.7  193.922
 9.0676  36587.4  190.656
 9.2656  35190.7  187.669
 9.4636  34083  183.162
 9.6616  33434  182.134
 9.8596  32671.4  179.503
 10.0576  30817.9  174.992
 10.2556  29804  172.542
 10.4536  34205  184.413
 10.6516  33733.8  183.356
 10.8496  27273.8  164.291
 11.0476  27025  163.552
 11.2456  28950.1  169.832
 11.4436  26571.3  161.875
 11.6416  25777.4  159.782
 11.8396  24599.8  156.297
 12.0376  23826.6  153.461
 12.2356  25261.8  158.438
 12.4336  24266.1  154.83
 12.6316  23564.3  152.837
 12.8296  23832.5  153.31
 13.0276  24041.9  154.2
 13.2256  23963.1  154.312
 13.4236  23917.3  153.932
 13.6216  24299.8  155.155
 13.8196  27141.2  163.448
 14.0176  23482.6  152.601
 14.2156  23011.9  150.099
 14.4136  21853.8  147.644
 14.6116  21712.8  146.362
 14.8096  20775.7  143.161
 15.0076  20277  145.316
 15.2056  19164.8  137.116
 15.4036  18259.5  134.653
 15.6016  18006.9  132.817
 15.7996  17362.2  130.693
 15.9976  17067.2  132.452
 16.1956  16715.1  128.99
 16.3936  16577.8  127.633
 16.5916  16477.8  127.898
 16.7896  16453.6  127.863
 16.9876  16004.5  127.543
 17.1856  15981.5  125.833
 17.3836  15206.4  122.657
 17.5816  15006.4  122.321
 17.7796  15247.9  123.234
 17.9776  14996  122.995
 18.1756  15621.7  124.239
 18.3736  15972.2  126.127
 18.5716  14354.6  119.331
 18.7696  14603.8  119.927
 18.9676  14141.3  117.811
 19.1656  13832.2  117.097
 19.3636  13833.7  117.293
 19.5616  13854.8  117.557
 19.7596  13895.6  117.132
 19.9576  14390.6  119.246
 20.1556  13464.9  115.86
 20.3536  13413.4  115.032
 20.5516  13167.7  114.41
 20.7496  12961.4  113.448
 20.9476  13273  114.56
 21.1456  13274.1  114.882
 21.3436  12766  112.618
 21.5416  12762.3  112.619
 21.7396  12615.4  111.811
 21.9376  12564.1  111.358
 22.1356  12855.3  112.76
 22.3336  12488.8  111.424
 22.5316  12399.2  111.116
 22.7296  12209.5  109.632
 22.9276  12001.3  109.354
 23.1256  12625.3  111.642
 23.3236  12668.9  112.407
 23.5216  12373.4  110.712
 23.7196  12298.1  110.346
 23.9176  12328.7  110.233
 24.1156  12126  109.779
 24.3136  11943.8  109.752
 24.5116  12019.8  109.627
 24.7096  11790.4  108.377
 24.9076  11463.7  106.904
 25.1056  11225.5  106.25
 25.3036  10966.4  104.53
 25.5016  11204.1  105.696
 25.6996  11140.2  104.977
 25.8976  11318.7  106.252
 26.0956  10871.1  104.143
 26.2936  10873.7  103.813
 26.4916  11046.1  104.494
 26.6896  10727.4  103.276
 26.8876  10646.3  102.75
 27.0856  10391.1  101.562
 27.2836  10250.6  100.77
 27.4816  10428.7  101.569
 27.6796  10204.6  100.847
 27.8776  10631  102.785
 28.0756  10220.4  101.07
 28.2736  10122.5  100.169
 28.4716  9931.97  99.2657
 28.6696  9963.95  99.2781
 28.8676  9733.8  98.4733
 29.0656  9611.76  97.8288
 29.2636  9710.95  98.1273
 29.4616  9359.47  96.513
 29.6596  9437.95  96.4876
 29.8576  9233.47  96.1041
 30.0556  9493.31  97.3278
 30.2536  9283.35  96.0437
 30.4516  9615.83  97.3928
 30.6496  9544.78  96.7522
 30.8476  9484.45  96.9008
 31.0456  9415.4  96.5091
 31.2436  9485.61  96.1344
 31.4416  9247.74  95.1028
 31.6396  9770.04  97.7957
 31.8376  9327.82  95.0803
 32.0356  9335.65  95.6808
 32.2336  9143.73  94.1134
 32.4316  8945.22  93.4835
 32.6296  8845.24  92.8035
 32.8276  8858.8  92.6636
 33.0256  8860.28  92.727
 33.2236  8883.25  92.9984
 33.4216  8751.11  91.9895
 33.6196  8819.55  92.6438
 33.8176  8805.56  92.7349
 34.0156  8605.64  91.3061
 34.2136  8647.45  91.5449
 34.4116  8558.48  91.2441
 34.6096  8593.88  91.3141
 34.8076  8442.35  90.919
 35.0056  8446.12  90.6065
 35.2036  8713.59  92.2645
 35.4016  8398.68  90.4925
 35.5996  8293.97  89.9555
 35.7976  8328.17  90.406
 35.9956  8621.15  91.6435
 36.1936  8349.33  90.0331
 36.3916  8241.32  89.6482
 36.5896  8407.64  91.536
 36.7876  8119.7  89.3506
 36.9856  8048  88.9809
 37.1836  8142.6  88.608
 37.3816  8045.48  88.4435
 37.5796  8037.62  90.112
 37.7776  8079.5  88.73
 37.9756  8230.25  89.4262
 38.1736  8255.2  89.7583
 38.3716  7993.89  88.5954
 38.5696  7912.3  88.5048
 38.7676  7867.49  87.78
 38.9656  8064.72  88.4919
 39.1636  7916.04  87.9515
 39.3616  7920.83  87.914
 39.5596  7834.94  88.2648
 39.7576  7633.77  86.5274
 39.9556  7888.79  87.5991
 40.1536  7954.3  88.1593
 40.3516  8000.21  88.4277
 40.5496  7919.74  88.2272
 40.7476  7945.08  88.3836
 40.9456  8038.6  88.648
 41.1436  8017.93  88.255
 41.3416  7777.32  87.256
 41.5396  7900.75  87.755
 41.7376  7851.52  87.7399
 41.9356  7680.8  86.6297
 42.1336  8021.54  88.6825
 42.3316  7880.3  88.1021
 42.5296  7915.43  87.8226
 42.7276  7833.54  87.6014
 42.9256  7875.75  87.7128
 43.1236  7731.88  87.0101
 43.3216  7894.1  87.6593
 43.5196  7654.42  86.3856
 43.7176  7722.49  87.166
 43.9156  7560.08  86.1571
 44.1136  7381.12  84.692
 44.3116  7514.53  85.468
 44.5096  7485.03  85.6063
 44.7076  7540.7  85.8544
 44.9056  7739.96  86.8516
 45.1036  7601.75  85.6917
 45.3016  7625.15  86.3305
 45.4996  7597.82  86.1163
 45.6976  7458.73  85.5015
 45.8956  7545.53  85.8092
 46.0936  7626.15  86.2738
 46.2916  7641.89  86.3397
 46.4896  7634.78  86.3282
 46.6876  7416.49  85.7988
 46.8856  7391.21  84.9034
 47.0836  7431.35  85.3996
 47.2816  7328.38  84.6815
 47.4796  7450.14  85.4902
 47.6776  7339.72  85.813
 47.8756  7347.05  85.013
 48.0736  7410.73  85.8484
 48.2716  7238.42  84.6553
 48.4696  7467.78  85.5638
 48.6676  7386.77  85.7048
 48.8656  7362.34  85.2791
 49.0636  7446.75  85.7223
 49.2616  7228.58  84.4958
 49.4596  7313.49  84.5373
 49.6576  7278.21  84.5649
 49.8556  7317.26  84.8124
 50.0536  7291.55  85.1208
 50.2516  7239.15  84.9495
 50.4496  7238  84.589
 50.6476  7214.87  84.1305
 50.8456  7256.11  84.4622
 51.0436  6973.85  83.2485
 51.2416  6957.24  82.8208
 51.4396  6903.88  82.9067
 51.6376  6937.61  82.9282
 51.8356  6890.97  82.2763
 52.0336  7088.62  83.9723
 52.2316  7018.21  83.919
 52.4296  6910.99  82.9679
 52.6276  6830.5  82.5924
 52.8256  6912.83  82.6428
 53.0236  7034.45  84.0217
 53.2216  6946.58  83.5345
 53.4196  6789.83  82.473
 53.6176  6878.31  83.5302
 53.8156  6903.88  83.3368
 54.0136  6604.22  81.6891
 54.2116  6743.79  82.1818
 54.4096  6635.05  81.5902
 54.6076  6550.02  81.4201
 54.8056  6499.28  80.8544
 55.0036  6507.86  81.3349
 55.2016  6589.27  81.3405
 55.3996  6412.51  80.2371
 55.5976  6415.54  80.456
 55.7956  6446.63  80.4558
 55.9936  6512.68  81.0008
 56.1916  6400.5  80.3248
 56.3896  6262.21  79.4399
 56.5876  6254.66  79.9439
 56.7856  6276.5  79.5736
 56.9836  6315.23  79.5962
 57.1816  6410.36  80.5597
 57.3796  6204.08  79.072
 57.5776  6224.6  79.1054
 57.7756  6115.7  79.0598
 57.9736  6145.53  78.9334
 58.1716  6125.57  79.0549
 58.3696  5996.84  77.9851
 58.5676  5927.4  77.0012
 58.7656  5969.13  77.952
 58.9636  5905.38  77.5659
 59.1616  5922.44  77.8031
 59.3596  5962.17  77.3322
 59.5576  5832.75  76.5448
 59.7556  5877.95  77.2534
 59.9536  6118.26  78.715
 60.1516  5832.03  77.6858
 60.1996  0.0000000E+00  0.0000000E+00