File: docs/examples/XRD/IS17_D/Data/IS17_D/17_Da_f00029.xye
# /beamlines/bl04/projects/cycle2025-II/20250340211-lsimonelli/DATA/IS17_D/17_Da_f00029.xye : mythproc.py merge -s 0.006 -l 0.5 -f /beamlines/bl04/inhouse/ff/FlatField/ff_20Nov2024rod8mm60s_17keV.raw -b True -c true -o xye /beamlines/bl04/projects/cycle2025-II/20250340211-lsimonelli/DATA/IS17_D/17_Da_00029.dat
# IsMon = [6786229, 6792169, 6787394]  IsPos = [-1.5000, -2.4885, -3.4988]
# Wave = 0.4962  CalPath /beamlines/bl04/projects/cycle2025-II/20250340211-lsimonelli/DATA/Align/Si_Pos1_25keV_f00001.cal
# Date = 2025-09-24_01:37:26 Dt = 4.8000  Bin = 0.0060  <imon> = 6788597 +/- 2570 (Min/Max) 6786229 / 6792169
# icurr 253.1645  mocoIn 1.7273E-05  mocoOut 0.8103  i15 7.10594e+06  imon 6.7886e+06  i7 5.0000  iEMpd_timer 4.8000  iEMpd_1 3.6808E-08  iEMpd_2 7.8365E-08  iEMpd_3 1.8413E-08  iEMpd_4 4.8072E-08  iEMhp_timer 4.8000  iEMhp_1 4.9454E-06  iEMhp_2 -2.5526E-08  iEMhp_3 -2.2308E-08  iEMhp_4 -2.0703E-08
#      9776
 1.7416  70195.2  265.066
 1.9396  45273.3  213.15
 2.1376  31799.2  178.632
 2.3356  28356.9  168.332
 2.5336  26539.4  163.422
 2.7316  25019.1  158.745
 2.9296  24027.9  155.734
 3.1276  23374.6  153.164
 3.3256  23318.1  152.633
 3.5236  25208.8  158.665
 3.7216  22940.8  152.452
 3.9196  22534.8  150.326
 4.1176  22276.1  149.242
 4.3156  23661.3  153.979
 4.5136  26117.3  160.745
 4.7116  27306.9  165.514
 4.9096  26726.6  163.181
 5.1076  26477  162.998
 5.3056  26763.5  163.612
 5.5036  26337.2  162.276
 5.7016  26887.8  163.843
 5.8996  27429.1  164.701
 6.0976  28050.8  167.998
 6.2956  28451.8  168.522
 6.4936  29120.7  169.694
 6.6916  29422.2  171.564
 6.8896  30198.2  173.672
 7.0876  31256.2  177.336
 7.2856  30995.4  175.733
 7.4836  31226.4  175.732
 7.6816  32150.3  178.84
 7.8796  33289.7  181.959
 8.0776  34754  186.889
 8.2756  36782.1  190.883
 8.4736  37213.8  191.808
 8.6716  36455.7  190.46
 8.8696  36307.1  190.591
 9.0676  35306.7  187.317
 9.2656  34486.1  185.805
 9.4636  33925.2  182.72
 9.6616  33013.3  181.008
 9.8596  31932.7  177.469
 10.0576  30349  173.656
 10.2556  29206.2  170.793
 10.4536  28533  168.421
 10.6516  28287.7  167.892
 10.8496  27105.3  163.782
 11.0476  26373.2  161.51
 11.2456  25587.6  159.663
 11.4436  25708.4  159.225
 11.6416  25540.5  159.066
 11.8396  23857.6  153.937
 12.0376  23957.6  153.873
 12.2356  23620.3  153.229
 12.4336  23431.1  152.148
 12.6316  23144.3  151.48
 12.8296  23426.7  152.037
 13.0276  23954.7  153.916
 13.2256  24051.3  154.592
 13.4236  23795.7  153.544
 13.6216  23537.2  152.728
 13.8196  23714.3  153.064
 14.0176  23390.1  152.29
 14.2156  22729.2  149.192
 14.4136  21850.1  147.636
 14.6116  21589.4  145.965
 14.8096  21008.5  143.978
 15.0076  19789.1  143.5
 15.2056  19544.1  138.462
 15.4036  18472.3  135.426
 15.6016  18221.1  133.596
 15.7996  17712  132.002
 15.9976  17052.5  132.441
 16.1956  16547.5  128.371
 16.3936  16370.8  126.866
 16.5916  15809.6  125.292
 16.7896  15906.5  125.735
 16.9876  15816.6  126.805
 17.1856  15642.7  124.479
 17.3836  15144.9  122.392
 17.5816  14550.1  120.444
 17.7796  14633.6  120.713
 17.9776  14394.9  120.521
 18.1756  14681.1  120.419
 18.3736  14520.3  120.264
 18.5716  14315.5  119.171
 18.7696  14331.4  118.81
 18.9676  13917.4  116.893
 19.1656  13679  116.441
 19.3636  13729.9  116.846
 19.5616  13625.5  116.568
 19.7596  13698.8  116.302
 19.9576  13977.1  117.521
 20.1556  13965  117.991
 20.3536  13370.4  114.839
 20.5516  12991.5  113.638
 20.7496  12726.9  112.335
 20.9476  12722.5  112.163
 21.1456  12980.4  113.612
 21.3436  12703.8  112.349
 21.5416  12546.1  111.65
 21.7396  12439.4  111.028
 21.9376  12480.2  110.978
 22.1356  12358.5  110.703
 22.3336  12386.1  110.942
 22.5316  12368  110.964
 22.7296  12525.5  111.03
 22.9276  12232.5  110.394
 23.1256  12559.6  111.351
 23.3236  12377.9  111.1
 23.5216  12302.7  110.43
 23.7196  12146.8  109.886
 23.9176  12053.2  109.009
 24.1156  12091.7  109.651
 24.3136  11638.5  108.336
 24.5116  11711  108.208
 24.7096  11180  105.547
 24.9076  10999.5  104.722
 25.1056  10889  104.365
 25.3036  10836.7  103.909
 25.5016  10914.6  104.325
 25.6996  10742.7  103.086
 25.8976  10768.8  103.644
 26.0956  10688.2  103.276
 26.2936  10717.7  103.061
 26.4916  10760.1  103.152
 26.6896  10420.7  101.802
 26.8876  10353  101.329
 27.0856  10456.1  101.83
 27.2836  10203.6  100.539
 27.4816  10174.4  100.328
 27.6796  10092.2  100.293
 27.8776  9969.82  99.5464
 28.0756  10028.1  100.115
 28.2736  9963  99.3805
 28.4716  9814.2  98.6721
 28.6696  9657.45  97.7371
 28.8676  9749.02  98.5446
 29.0656  9581.93  97.6776
 29.2636  9510.05  97.0298
 29.4616  9262.3  96.0067
 29.6596  9484.66  96.7218
 29.8576  9388.36  96.909
 30.0556  9306.89  96.3708
 30.2536  9487.07  97.0887
 30.4516  9277.24  95.6886
 30.6496  9213.35  95.0898
 30.8476  9211.57  95.5131
 31.0456  9281.62  95.84
 31.2436  9111.22  94.2338
 31.4416  9041.46  94.0305
 31.6396  9110.03  94.434
 31.8376  8948.28  93.1475
 32.0356  9001.8  93.9848
 32.2336  8906.36  92.8887
 32.4316  8879.41  93.1402
 32.6296  8812.62  92.5646
 32.8276  8835.58  92.5322
 33.0256  8705.53  91.9247
 33.2236  8707.23  92.082
 33.4216  8738.55  91.9419
 33.6196  8660.62  91.8071
 33.8176  8608.91  91.7015
 34.0156  8593.37  91.2384
 34.2136  8500.18  90.7831
 34.4116  8436.12  90.5852
 34.6096  8461.03  90.6002
 34.8076  8244.83  89.8431
 35.0056  8385.19  90.2935
 35.2036  8343.4  90.2764
 35.4016  8297.75  89.947
 35.5996  8238.24  89.6626
 35.7976  8255.68  90.0286
 35.9956  8284.74  89.8332
 36.1936  8267.7  89.6082
 36.3916  8113.96  88.953
 36.5896  8134.23  90.4841
 36.7876  8145.56  89.4908
 36.9856  7994.89  88.6832
 37.1836  8078.16  88.2535
 37.3816  8138.02  88.9515
 37.5796  7885.52  89.2516
 37.7776  7868.61  87.5674
 37.9756  7889.3  87.568
 38.1736  8030.03  88.5403
 38.3716  7914.46  88.1754
 38.5696  7810.06  87.9528
 38.7676  7605  86.3017
 38.9656  7795.94  87.0157
 39.1636  7712.28  86.7779
 39.3616  7823.3  87.3536
 39.5596  7664.89  87.3035
 39.7576  7632.99  86.5161
 39.9556  7749.25  86.8142
 40.1536  7837.94  87.52
 40.3516  7790.57  87.2541
 40.5496  7887.11  87.8505
 40.7476  7830.96  87.7464
 40.9456  7884.22  87.7973
 41.1436  7891.5  87.5614
 41.3416  7702.17  86.8302
 41.5396  7728.77  86.7903
 41.7376  7714.67  86.9784
 41.9356  7586.95  86.1176
 42.1336  7726.11  87.0508
 42.3316  7702.69  87.1106
 42.5296  7709.98  86.6723
 42.7276  7726.21  87.003
 42.9256  7660.02  86.496
 43.1236  7601.67  86.2791
 43.3216  7608.36  86.1717
 43.5196  7478.19  85.3907
 43.7176  7537.47  86.1178
 43.9156  7418.02  85.3421
 44.1136  7378.64  84.6724
 44.3116  7487.54  85.3116
 44.5096  7353.57  84.8457
 44.7076  7231.12  84.0698
 44.9056  7451.21  85.2248
 45.1036  7310.19  84.0476
 45.3016  7291.89  84.4347
 45.4996  7173.13  83.6838
 45.6976  7076.72  83.293
 45.8956  7100.1  83.2366
 46.0936  7306.73  84.2005
 46.2916  7191.27  83.7536
 46.4896  7222.28  83.9679
 46.6876  7168.31  84.3528
 46.8856  7005.26  82.6672
 47.0836  6972.06  82.7188
 47.2816  6982.15  82.6508
 47.4796  6980.55  82.7397
 47.6776  6802.38  82.6085
 47.8756  6882.35  82.2843
 48.0736  6821.81  82.3709
 48.2716  6764.12  81.8364
 48.4696  6922.01  82.3853
 48.6676  6958.38  83.1808
 48.8656  6792.81  81.9108
 49.0636  6823.52  82.0468
 49.2616  6655.57  81.0718
 49.4596  6738.09  81.1387
 49.6576  6730.12  81.3076
 49.8556  6625.68  80.7066
 50.0536  6671.76  81.4197
 50.2516  6659.05  81.4464
 50.4496  6610.85  80.8389
 50.6476  6688.31  81.0017
 50.8456  6604.01  80.57
 51.0436  6416.18  79.8474
 51.2416  6455.32  79.7704
 51.4396  6208.28  78.6145
 51.6376  6413.01  79.7207
 51.8356  6425.74  79.4377
 52.0336  6311.63  79.2482
 52.2316  6293.44  79.4752
 52.4296  6350.43  79.5309
 52.6276  6382.57  79.8392
 52.8256  6353.1  79.2315
 53.0236  6164.72  78.654
 53.2216  6149.82  78.5616
 53.4196  6031.82  77.7621
 53.6176  6221.33  79.4433
 53.8156  6063.27  78.1083
 54.0136  6148.12  78.834
 54.2116  6127.86  78.3689
 54.4096  6100.32  78.2215
 54.6076  6088.87  78.5108
 54.8056  5986.93  77.6423
 55.0036  6042.59  78.2657
 55.2016  6022.62  77.7414
 55.3996  6102.25  78.2913
 55.5976  6025.37  77.9821
 55.7956  6117.66  78.3977
 55.9936  6008.87  77.8308
 56.1916  5988.21  77.7167
 56.3896  5974.34  77.6109
 56.5876  5950  77.9923
 56.7856  5949.83  77.4894
 56.9836  5945.14  77.252
 57.1816  5971.82  77.7944
 57.3796  5954.8  77.48
 57.5776  6002.77  77.7287
 57.7756  5951.67  78.0224
 57.9736  5959.38  77.7478
 58.1716  5951.83  77.9352
 58.3696  5920.93  77.4772
 58.5676  5927.39  77.0105
 58.7656  6058.68  78.5289
 58.9636  6016.27  78.2874
 59.1616  6063.03  78.7071
 59.3596  6105.29  78.2653
 59.5576  6071.18  78.1035
 59.7556  5895.2  77.3765
 59.9536  6029.95  78.1548
 60.1516  5966.88  78.5887
 60.1996  0.0000000E+00  0.0000000E+00