File: docs/examples/XRD/IS17_D/Data/IS17_D/17_Db_f00106.xye
# /beamlines/bl04/projects/cycle2025-II/20250340211-lsimonelli/DATA/IS17_D/17_Db_f00106.xye : mythproc.py merge -s 0.006 -l 0.5 -f /beamlines/bl04/inhouse/ff/FlatField/ff_20Nov2024rod8mm60s_17keV.raw -b True -c true -o xye /beamlines/bl04/projects/cycle2025-II/20250340211-lsimonelli/DATA/IS17_D/17_Db_00106.dat
# IsMon = [6736017, 6740365, 6742120]  IsPos = [-1.4999, -2.4884, -3.4988]
# Wave = 0.4962  CalPath /beamlines/bl04/projects/cycle2025-II/20250340211-lsimonelli/DATA/Align/Si_Pos1_25keV_f00001.cal
# Date = 2025-09-24_23:16:08 Dt = 4.8000  Bin = 0.0060  <imon> = 6739501 +/- 2565 (Min/Max) 6736017 / 6742120
# icurr 248.7571  mocoIn 1.6973E-05  mocoOut 0.7960  i15 7.06816e+06  imon 6.7395e+06  i7 6.6667  iEMpd_timer 4.8000  iEMpd_1 3.5629E-08  iEMpd_2 7.8434E-08  iEMpd_3 1.7099E-08  iEMpd_4 4.8170E-08  iEMhp_timer 4.8000  iEMhp_1 4.8609E-06  iEMhp_2 -2.4947E-08  iEMhp_3 -2.4630E-08  iEMhp_4 -2.0425E-08
#      9776
 1.7416  69901  264.532
 1.9396  49210.7  222.242
 2.1376  36610  191.685
 2.3356  33032.2  181.695
 2.5336  30996.7  176.627
 2.7316  28619  169.813
 2.9296  27552.8  166.773
 3.1276  26612.6  163.445
 3.3256  25681.6  160.204
 3.5236  26912.7  163.79
 3.7216  24502.7  157.544
 3.9196  23904  154.817
 4.1176  23915.5  154.637
 4.3156  24635.1  157.105
 4.5136  27067.6  163.649
 4.7116  28108.3  167.914
 4.9096  27438.1  165.33
 5.1076  27073.8  164.822
 5.3056  26988.7  164.269
 5.5036  26881.9  163.858
 5.7016  27324.2  165.162
 5.8996  27637.5  165.34
 6.0976  28435  169.122
 6.2956  28569.2  168.859
 6.4936  29419  170.546
 6.6916  30054.9  173.383
 6.8896  30835.6  175.456
 7.0876  31696.4  178.652
 7.2856  31346.9  176.71
 7.4836  31707.3  177.071
 7.6816  32540.7  179.895
 7.8796  33363.8  182.147
 8.0776  34712  186.77
 8.2756  36665  190.571
 8.4736  36814.4  190.77
 8.6716  36052.3  189.408
 8.8696  36972.9  192.336
 9.0676  36094  189.353
 9.2656  35398.3  188.222
 9.4636  34265.7  183.642
 9.6616  33339.4  181.858
 9.8596  32843.6  179.985
 10.0576  30775  174.882
 10.2556  29664  172.148
 10.4536  28763.7  169.112
 10.6516  28042.9  167.189
 10.8496  26644.7  162.384
 11.0476  26110.9  160.76
 11.2456  25129.9  158.229
 11.4436  25062.5  157.207
 11.6416  26995.7  163.517
 11.8396  24715.8  156.663
 12.0376  23893.8  153.664
 12.2356  23531.9  152.915
 12.4336  23668  152.911
 12.6316  23478.1  152.562
 12.8296  23411.3  151.957
 13.0276  23846  153.568
 13.2256  24307.6  155.417
 13.4236  24204.7  154.856
 13.6216  24458.3  155.673
 13.8196  26606.7  161.818
 14.0176  23433.6  152.436
 14.2156  23237  150.83
 14.4136  22018.2  148.197
 14.6116  21798.8  146.651
 14.8096  21002  143.932
 15.0076  20180.4  144.979
 15.2056  19288.3  137.544
 15.4036  18254.5  134.621
 15.6016  17865.6  132.285
 15.7996  17311.2  130.478
 15.9976  17140.5  132.731
 16.1956  16961.8  129.937
 16.3936  16450.8  127.147
 16.5916  16169.7  126.694
 16.7896  16199.7  126.869
 16.9876  15985.9  127.466
 17.1856  15957.7  125.743
 17.3836  15424.9  123.541
 17.5816  15141.7  122.877
 17.7796  14864.9  121.681
 17.9776  14334  120.248
 18.1756  14442  119.461
 18.3736  14028.8  118.21
 18.5716  14023.7  117.944
 18.7696  13965.5  117.269
 18.9676  13951.1  117.013
 19.1656  13671.1  116.41
 19.3636  13551.6  116.092
 19.5616  13614.3  116.529
 19.7596  13586.9  115.832
 19.9576  13555.5  115.729
 20.1556  14462.3  120.063
 20.3536  13991.2  117.473
 20.5516  13432.1  115.548
 20.7496  13056.5  113.86
 20.9476  12986.5  113.317
 21.1456  12742.4  112.56
 21.3436  12748  112.54
 21.5416  12572.2  111.777
 21.7396  12398.5  110.841
 21.9376  12460.5  110.893
 22.1356  12440.6  110.925
 22.3336  12197.1  110.108
 22.5316  12241.6  110.396
 22.7296  12267.5  109.892
 22.9276  12167.3  110.098
 23.1256  12125.1  109.391
 23.3236  12694.5  112.522
 23.5216  12511.6  111.34
 23.7196  12428.2  110.93
 23.9176  12347.9  110.326
 24.1156  12057.1  109.473
 24.3136  11747.1  108.857
 24.5116  11814.2  108.691
 24.7096  11461.4  106.867
 24.9076  11471.9  106.959
 25.1056  11089.9  105.615
 25.3036  10828.4  103.868
 25.5016  11013  104.792
 25.6996  10918.5  103.929
 25.8976  10813.8  103.86
 26.0956  10647.9  103.062
 26.2936  10708.1  103.022
 26.4916  10878.8  103.7
 26.6896  10655.1  102.928
 26.8876  10515.6  102.118
 27.0856  10356.9  101.394
 27.2836  10163.1  100.333
 27.4816  10134.9  100.134
 27.6796  10104.7  100.342
 27.8776  10231.6  100.843
 28.0756  9844.72  99.1902
 28.2736  9858.78  98.8501
 28.4716  9572.7  97.46
 28.6696  9691.69  97.9077
 28.8676  9509.92  97.3333
 29.0656  9458.99  97.0493
 29.2636  9561.43  97.3707
 29.4616  9302.52  96.208
 29.6596  9268.42  95.6071
 29.8576  9080.76  95.303
 30.0556  9185.17  95.7254
 30.2536  9097.44  95.0701
 30.4516  9113.24  94.8139
 30.6496  9294.32  95.49
 30.8476  9298  95.9489
 31.0456  9418.41  96.5321
 31.2436  9298.41  95.193
 31.4416  9260.42  95.1742
 31.6396  9224.52  95.0273
 31.8376  9211.51  94.4889
 32.0356  9096.46  94.455
 32.2336  9216.78  94.497
 32.4316  8900.39  93.2521
 32.6296  8723.82  92.1578
 32.8276  8932.86  93.046
 33.0256  8668.32  91.7185
 33.2236  8764.67  92.372
 33.4216  8691.64  91.6722
 33.6196  8730.77  92.1782
 33.8176  8707.96  92.22
 34.0156  8681.47  91.7108
 34.2136  8770.58  92.1984
 34.4116  8354.25  90.1471
 34.6096  8543.46  91.0453
 34.8076  8540.71  91.4441
 35.0056  8525.78  91.0304
 35.2036  8627.22  91.8095
 35.4016  8362.52  90.2895
 35.5996  8274.65  89.8499
 35.7976  8324  90.3866
 35.9956  8385.3  90.374
 36.1936  8238.7  89.4455
 36.3916  8167.02  89.2349
 36.5896  8115.37  89.9378
 36.7876  8004.34  88.7041
 36.9856  7815.61  87.6813
 37.1836  7910.52  87.3279
 37.3816  7961.94  87.9732
 37.5796  7940.97  89.575
 37.7776  7989.29  88.2282
 37.9756  8115.16  88.8091
 38.1736  8161.79  89.243
 38.3716  7982.62  88.5415
 38.5696  7891.58  88.4054
 38.7676  7702.54  86.8583
 38.9656  7984.54  88.0665
 39.1636  7858.78  87.6402
 39.3616  7819.25  87.3517
 39.5596  7578.51  86.8146
 39.7576  7711.28  86.9636
 39.9556  7779.31  86.9911
 40.1536  7874.25  87.7096
 40.3516  7809.53  87.3603
 40.5496  7842  87.8005
 40.7476  7677.43  86.877
 40.9456  7999.79  88.4368
 41.1436  7975.26  88.0273
 41.3416  7696.36  86.7933
 41.5396  7734.17  86.8209
 41.7376  7845.74  87.7083
 41.9356  7635.79  86.3843
 42.1336  7891.09  87.9644
 42.3316  7685.62  87.0051
 42.5296  7709.83  86.6706
 42.7276  7744.79  87.1071
 42.9256  7881.02  87.7375
 43.1236  7609.27  86.3164
 43.3216  7731.03  86.7492
 43.5196  7607.77  86.1189
 43.7176  7668.71  86.8548
 43.9156  7311.24  84.7214
 44.1136  7455.39  85.1096
 44.3116  7496.3  85.3532
 44.5096  7448.57  85.3911
 44.7076  7380.05  84.9251
 44.9056  7497.72  85.4781
 45.1036  7531.19  85.2899
 45.3016  7451.14  85.3366
 45.4996  7496.07  85.5365
 45.6976  7327.82  84.7374
 45.8956  7475.36  85.4154
 46.0936  7504.02  85.591
 46.2916  7338.3  84.604
 46.4896  7492.09  85.5221
 46.6876  7399.56  85.7086
 46.8856  7381.28  84.8595
 47.0836  7309.6  84.7004
 47.2816  7215.67  84.028
 47.4796  7371.97  85.0489
 47.6776  7163.39  84.7776
 47.8756  7377.04  85.1892
 48.0736  7322.91  85.3321
 48.2716  7199.5  84.4225
 48.4696  7402.52  85.1958
 48.6676  7329.91  85.3722
 48.8656  7200.69  84.3234
 49.0636  7361.41  85.2242
 49.2616  7114.08  83.8157
 49.4596  7229.94  84.0531
 49.6576  7188.08  84.0402
 49.8556  7316.01  84.8068
 50.0536  7154.97  84.3208
 50.2516  7233.53  84.9178
 50.4496  7186.12  84.2861
 50.6476  7087.81  83.3843
 50.8456  7080.51  83.4173
 51.0436  6998.42  83.3867
 51.2416  6905.12  82.5021
 51.4396  6847.73  82.5589
 51.6376  6930.64  82.8799
 51.8356  6935.44  82.5238
 52.0336  6929.95  83.0184
 52.2316  6778.34  82.4522
 52.4296  6936.48  83.1179
 52.6276  6845.51  82.68
 52.8256  6995.78  83.1398
 53.0236  6974.66  83.6675
 53.2216  6925.92  83.4119
 53.4196  6829.32  82.7304
 53.6176  6701.19  82.4559
 53.8156  6771.67  82.5574
 54.0136  6607.91  81.7154
 54.2116  6728.93  82.0864
 54.4096  6556.69  81.1023
 54.6076  6561.89  81.4738
 54.8056  6494.66  80.8484
 55.0036  6474.78  81.1204
 55.2016  6601.7  81.4175
 55.3996  6351.04  79.854
 55.5976  6383.34  80.2528
 55.7956  6397.82  80.1643
 55.9936  6458.67  80.6571
 56.1916  6307.59  79.7577
 56.3896  6242.29  79.3161
 56.5876  6237.76  79.8331
 56.7856  6264.91  79.5116
 56.9836  6262.24  79.2715
 57.1816  6400.77  80.5122
 57.3796  6143.04  78.6783
 57.5776  6228.21  79.0991
 57.7756  6122.33  79.114
 57.9736  6060.36  78.3729
 58.1716  6023.78  78.3977
 58.3696  5903.03  77.3693
 58.5676  5930.7  77.0197
 58.7656  5998.94  78.1393
 58.9636  5888.7  77.444
 59.1616  5968.16  78.0983
 59.3596  5827.79  76.444
 59.5576  5879.69  76.8402
 59.7556  5906.63  77.4296
 59.9536  5872.57  77.1063
 60.1516  5729.75  76.9896
 60.1996  0.0000000E+00  0.0000000E+00