File: docs/examples/XRD/IS17_D/Data/IS17_D/17_Da_f00007.xye
# /beamlines/bl04/projects/cycle2025-II/20250340211-lsimonelli/DATA/IS17_D/17_Da_f00007.xye : mythproc.py merge -s 0.006 -l 0.5 -f /beamlines/bl04/inhouse/ff/FlatField/ff_20Nov2024rod8mm60s_17keV.raw -b True -c true -o xye /beamlines/bl04/projects/cycle2025-II/20250340211-lsimonelli/DATA/IS17_D/17_Da_00007.dat
# IsMon = [6754976, 6757488, 6755761]  IsPos = [-1.5000, -2.4885, -3.4988]
# Wave = 0.4962  CalPath /beamlines/bl04/projects/cycle2025-II/20250340211-lsimonelli/DATA/Align/Si_Pos1_25keV_f00001.cal
# Date = 2025-09-23_19:30:27 Dt = 4.8000  Bin = 0.0060  <imon> = 6756075 +/- 1049 (Min/Max) 6754976 / 6757488
# icurr 250.1078  mocoIn 1.7063E-05  mocoOut 0.8003  i15 7.06502e+06  imon 6.75608e+06  i7 5.6667  iEMpd_timer 4.8000  iEMpd_1 3.4854E-08  iEMpd_2 7.7744E-08  iEMpd_3 1.8138E-08  iEMpd_4 4.6940E-08  iEMhp_timer 4.8000  iEMhp_1 4.8863E-06  iEMhp_2 -2.4089E-08  iEMhp_3 -2.3361E-08  iEMhp_4 -2.1273E-08
#      9776
 1.7416  68311.9  261.462
 1.9396  44076.8  210.29
 2.1376  30870.8  175.989
 2.3356  27540.6  165.876
 2.5336  28639.3  169.748
 2.7316  24198.2  156.124
 2.9296  22723.4  151.454
 3.1276  22276.1  149.517
 3.3256  21958  148.126
 3.5236  23964.6  154.708
 3.7216  22023.4  149.373
 3.9196  21689.3  147.49
 4.1176  21082.5  145.187
 4.3156  22594.3  150.464
 4.5136  25535.8  158.952
 4.7116  26347.6  162.58
 4.9096  25564.7  159.593
 5.1076  24992.2  158.359
 5.3056  25285.4  159.028
 5.5036  24740.9  157.279
 5.7016  25185.9  158.576
 5.8996  25898.9  160.041
 6.0976  26375.5  162.903
 6.2956  27058.7  164.35
 6.4936  27856.9  165.972
 6.6916  28248.5  168.105
 6.8896  29230.5  170.866
 7.0876  30268.4  174.507
 7.2856  30039.6  173.003
 7.4836  30756.2  174.403
 7.6816  31154.6  176.046
 7.8796  32821.1  180.675
 8.0776  36159  190.64
 8.2756  36767.2  190.847
 8.4736  36735.4  190.579
 8.6716  36234.3  189.894
 8.8696  36824.9  191.929
 9.0676  35990.4  189.105
 9.2656  33847.5  184.063
 9.4636  33527.9  181.639
 9.6616  32534.4  179.675
 9.8596  31473  176.186
 10.0576  29772.3  172.009
 10.2556  28600.5  169.011
 10.4536  31455.7  176.841
 10.6516  30904.9  175.482
 10.8496  26496.1  161.922
 11.0476  26479.9  161.843
 11.2456  27738.7  166.243
 11.4436  26073.7  160.355
 11.6416  24843.7  156.873
 11.8396  23821.1  153.815
 12.0376  23428.4  152.166
 12.2356  24253.6  155.268
 12.4336  23741.1  153.152
 12.6316  22810  150.38
 12.8296  23282.2  151.57
 13.0276  23615.9  152.826
 13.2256  23317.4  152.213
 13.4236  23467.4  152.474
 13.6216  23271.9  151.86
 13.8196  23816.5  153.395
 14.0176  23160.7  151.55
 14.2156  22499.9  148.433
 14.4136  21170.9  145.321
 14.6116  21073.8  144.213
 14.8096  20363.3  141.749
 15.0076  19337  141.841
 15.2056  18887.8  136.124
 15.4036  18284.9  134.746
 15.6016  17818.2  132.119
 15.7996  17404.6  130.856
 15.9976  16523.5  130.346
 16.1956  16091.6  126.581
 16.3936  15739.9  124.389
 16.5916  15956.3  125.865
 16.7896  15722.5  124.995
 16.9876  15552.8  125.742
 17.1856  15333.7  123.253
 17.3836  14659.2  120.418
 17.5816  14338.1  119.558
 17.7796  14599.2  120.58
 17.9776  14433.4  120.68
 18.1756  15501.8  123.733
 18.3736  15051  122.443
 18.5716  13975.7  117.75
 18.7696  14001.4  117.429
 18.9676  13598.6  115.543
 19.1656  13569.7  115.976
 19.3636  13387.5  115.382
 19.5616  13401.9  115.611
 19.7596  13468.2  115.311
 19.9576  13994  117.602
 20.1556  13337.7  115.315
 20.3536  12927.1  112.921
 20.5516  12819.1  112.889
 20.7496  12495  111.308
 20.9476  12921.7  113.034
 21.1456  12962.8  113.533
 21.3436  12580.5  111.802
 21.5416  12475.3  111.338
 21.7396  12078.9  109.399
 21.9376  12333.5  110.325
 22.1356  12454.7  111.133
 22.3336  12392.2  110.975
 22.5316  12366.6  110.962
 22.7296  12240.1  109.764
 22.9276  12040.5  109.533
 23.1256  12552.4  111.316
 23.3236  12035.5  109.52
 23.5216  12086.9  109.442
 23.7196  11956.3  109.015
 23.9176  11761.5  107.671
 24.1156  11658.2  107.66
 24.3136  11449.5  107.461
 24.5116  11488.1  107.175
 24.7096  11395.5  106.563
 24.9076  11180.3  105.572
 25.1056  10957.9  104.704
 25.3036  10713  103.319
 25.5016  10800  103.767
 25.6996  10688.4  102.825
 25.8976  10792.7  103.759
 26.0956  10832.6  103.97
 26.2936  10650.4  102.738
 26.4916  10611  102.426
 26.6896  10257.6  101.005
 26.8876  10140.9  100.283
 27.0856  10252.6  100.842
 27.2836  10028.3  99.6725
 27.4816  10066  99.7935
 27.6796  10023.8  99.9543
 27.8776  9986.12  99.6282
 28.0756  9893.66  99.4427
 28.2736  9782.19  98.4739
 28.4716  9577.13  97.4806
 28.6696  9651.49  97.7103
 28.8676  9553.56  97.5523
 29.0656  9379.19  96.6413
 29.2636  9288.4  95.8878
 29.4616  9373.38  96.5796
 29.6596  9521.53  96.9144
 29.8576  9094.1  95.3833
 30.0556  9336.67  96.5203
 30.2536  9246.43  95.855
 30.4516  9131.43  94.9266
 30.6496  9241.25  95.2245
 30.8476  9011.8  94.4665
 31.0456  9036.01  94.5509
 31.2436  8940.03  93.3308
 31.4416  8918.74  93.3948
 31.6396  9168.86  94.7417
 31.8376  8981.9  93.3222
 32.0356  8846.87  93.1696
 32.2336  8810.98  92.385
 32.4316  8805.52  92.7556
 32.6296  8715.74  92.0574
 32.8276  8729.11  91.9613
 33.0256  8667.83  91.7272
 33.2236  8632.91  91.6813
 33.4216  8628.82  91.3602
 33.6196  8490.32  90.9034
 33.8176  8418.14  90.6769
 34.0156  8457.13  90.5016
 34.2136  8390.89  90.1932
 34.4116  8212.62  89.3787
 34.6096  8292.79  89.6911
 34.8076  8324.05  90.2675
 35.0056  8386.08  90.2969
 35.2036  8298.19  90.0243
 35.4016  8260.65  89.7464
 35.5996  8115.04  88.9871
 35.7976  8049.57  88.8958
 35.9956  8231.2  89.5434
 36.1936  8141.59  88.9258
 36.3916  8001.78  88.3297
 36.5896  8086.51  90.2126
 36.7876  7982.15  88.5918
 36.9856  8036.71  88.9196
 37.1836  8049.63  88.1034
 37.3816  8033.7  88.3776
 37.5796  7795.8  88.7484
 37.7776  7752.26  86.9097
 37.9756  7902.97  87.63
 38.1736  7994.95  88.34
 38.3716  7934.07  88.2776
 38.5696  7803.57  87.915
 38.7676  7589.58  86.2116
 38.9656  7693.81  86.4464
 39.1636  7721.21  86.8294
 39.3616  7717.93  86.7697
 39.5596  7643.44  87.1955
 39.7576  7586.1  86.242
 39.9556  7638.25  86.1889
 40.1536  7771.03  87.1372
 40.3516  7720.78  86.8643
 40.5496  7740.87  87.0319
 40.7476  7694.6  86.9768
 40.9456  7767.2  87.1303
 41.1436  7738.34  86.7086
 41.3416  7681.85  86.7193
 41.5396  7723  86.7597
 41.7376  7695.73  86.8694
 41.9356  7628.53  86.351
 42.1336  7657.79  86.6636
 42.3316  7587.67  86.4582
 42.5296  7636.31  86.2586
 42.7276  7644.18  86.5419
 42.9256  7556.92  85.9106
 43.1236  7501.94  85.7115
 43.3216  7508.28  85.6004
 43.5196  7468.97  85.3366
 43.7176  7529.48  86.075
 43.9156  7391.44  85.19
 44.1136  7318.21  84.3296
 44.3116  7452.99  85.12
 44.5096  7360.97  84.8936
 44.7076  7351.57  84.7693
 44.9056  7322.18  84.4777
 45.1036  7219.13  83.5161
 45.3016  7149.63  83.6025
 45.4996  7243.21  84.085
 45.6976  6992.05  82.7871
 45.8956  7112.63  83.3122
 46.0936  7242.94  83.8357
 46.2916  7172.47  83.646
 46.4896  7120.76  83.3734
 46.6876  7022.67  83.4959
 46.8856  6939.03  82.2825
 47.0836  6932.95  82.4881
 47.2816  6951.27  82.4715
 47.4796  6937.35  82.4847
 47.6776  6823.61  82.7303
 47.8756  6863.39  82.17
 48.0736  6938.59  83.0687
 48.2716  6762.45  81.8294
 48.4696  6765.19  81.454
 48.6676  6828.62  82.4001
 48.8656  6845.46  82.2368
 49.0636  6783.46  81.8063
 49.2616  6630.93  80.9261
 49.4596  6665.73  80.7101
 49.6576  6686.92  81.0589
 49.8556  6631.59  80.7428
 50.0536  6609.14  81.0446
 50.2516  6612.52  81.1641
 50.4496  6592.38  80.7268
 50.6476  6757.86  81.422
 50.8456  6605.17  80.5832
 51.0436  6469.01  80.1787
 51.2416  6473.55  79.89
 51.4396  6181.78  78.4433
 51.6376  6355.88  79.3738
 51.8356  6391.28  79.2361
 52.0336  6240.5  78.7942
 52.2316  6323.02  79.6539
 52.4296  6270.71  79.0267
 52.6276  6248.45  78.9947
 52.8256  6253.92  78.5981
 53.0236  6161.51  78.6339
 53.2216  6193.1  78.8411
 53.4196  6126.58  78.3732
 53.6176  6121.51  78.8048
 53.8156  6089.97  78.2795
 54.0136  6150.15  78.8391
 54.2116  6159.69  78.5669
 54.4096  6083.61  78.1335
 54.6076  6071.72  78.3994
 54.8056  6002.66  77.7448
 55.0036  5973.84  77.8161
 55.2016  6040.68  77.8525
 55.3996  6070.67  78.0914
 55.5976  5894.82  77.1324
 55.7956  6055.81  77.9958
 55.9936  5893.06  77.0758
 56.1916  6050.53  78.1175
 56.3896  5951.42  77.466
 56.5876  6014.75  78.4218
 56.7856  5917.34  77.2758
 56.9836  5867.65  76.7399
 57.1816  5953.95  77.6766
 57.3796  5978.19  77.6341
 57.5776  5981.7  77.5921
 57.7756  5933.79  77.9023
 57.9736  5860.41  77.0997
 58.1716  5989.11  78.1819
 58.3696  5930.67  77.551
 58.5676  5930.48  77.0284
 58.7656  5942.57  77.7775
 58.9636  6075.09  78.6731
 59.1616  6030.21  78.5054
 59.3596  6043.63  77.863
 59.5576  6103.24  78.3043
 59.7556  6036.25  78.2916
 59.9536  6142.71  78.877
 60.1516  5967.06  78.5848
 60.1996  0.0000000E+00  0.0000000E+00