File: docs/examples/XRD/IS17_D/Data/IS17_D/17_Da_f00083.xye
# /beamlines/bl04/projects/cycle2025-II/20250340211-lsimonelli/DATA/IS17_D/17_Da_f00083.xye : mythproc.py merge -s 0.006 -l 0.5 -f /beamlines/bl04/inhouse/ff/FlatField/ff_20Nov2024rod8mm60s_17keV.raw -b True -c true -o xye /beamlines/bl04/projects/cycle2025-II/20250340211-lsimonelli/DATA/IS17_D/17_Da_00083.dat
# IsMon = [6783237, 6787031, 6787169]  IsPos = [-1.4999, -2.4884, -3.4988]
# Wave = 0.4962  CalPath /beamlines/bl04/projects/cycle2025-II/20250340211-lsimonelli/DATA/Align/Si_Pos1_25keV_f00001.cal
# Date = 2025-09-24_16:40:59 Dt = 4.8000  Bin = 0.0060  <imon> = 6785812 +/- 1822 (Min/Max) 6783237 / 6787169
# icurr 252.2997  mocoIn 1.7210E-05  mocoOut 0.8075  i15 7.10049e+06  imon 6.78581e+06  i7 5.3333  iEMpd_timer 4.8000  iEMpd_1 3.2835E-08  iEMpd_2 7.8898E-08  iEMpd_3 1.5729E-08  iEMpd_4 4.7276E-08  iEMhp_timer 4.8000  iEMhp_1 4.9275E-06  iEMhp_2 -2.6278E-08  iEMhp_3 -2.4567E-08  iEMhp_4 -2.0620E-08
#      9776
 1.7416  70554.3  265.747
 1.9396  45702.8  214.16
 2.1376  32279.5  179.979
 2.3356  28919.6  169.997
 2.5336  27392.5  166.03
 2.7316  25350.2  159.81
 2.9296  24303.3  156.639
 3.1276  23655.2  154.096
 3.3256  23368.8  152.817
 3.5236  25522.3  159.509
 3.7216  23189.8  153.272
 3.9196  22741.6  151.025
 4.1176  22663.3  150.538
 4.3156  23925.3  154.828
 4.5136  26591.8  162.206
 4.7116  27457.1  165.967
 4.9096  26742.7  163.231
 5.1076  26429.5  162.855
 5.3056  26892.2  163.997
 5.5036  26753  163.46
 5.7016  27181  164.736
 5.8996  27702.3  165.522
 6.0976  28399.8  169.044
 6.2956  29117.1  170.483
 6.4936  29726.9  171.444
 6.6916  29815.3  172.706
 6.8896  30647.8  174.959
 7.0876  31755.7  178.823
 7.2856  31579.7  177.381
 7.4836  32194.3  178.433
 7.6816  32763.5  180.54
 7.8796  34537.5  185.342
 8.0776  36479.3  191.473
 8.2756  37824.8  193.56
 8.4736  38277.7  194.522
 8.6716  37359.7  192.818
 8.8696  37834.1  194.54
 9.0676  36814.3  191.258
 9.2656  35710.3  189.06
 9.4636  35189.5  186.073
 9.6616  34449.8  184.887
 9.8596  33098.5  180.695
 10.0576  31408  176.68
 10.2556  30343.8  174.103
 10.4536  30642.1  174.552
 10.6516  30616.1  174.686
 10.8496  28272.7  167.263
 11.0476  27684.9  165.543
 11.2456  27734.4  166.231
 11.4436  27034.1  163.281
 11.6416  26387.5  161.681
 11.8396  24975  157.502
 12.0376  24717.9  156.317
 12.2356  24767.3  156.881
 12.4336  24517.6  155.633
 12.6316  23881.2  153.868
 12.8296  24288.9  154.812
 13.0276  25060.6  157.431
 13.2256  24643.4  156.485
 13.4236  24557.8  155.972
 13.6216  24414  155.545
 13.8196  24754.3  156.388
 14.0176  24196.6  154.9
 14.2156  23852.3  152.831
 14.4136  22414.9  149.531
 14.6116  22330.7  148.45
 14.8096  21612.5  146.023
 15.0076  20312.6  145.367
 15.2056  20159  140.62
 15.4036  18995.8  137.328
 15.6016  18688.8  135.301
 15.7996  18429.6  134.638
 15.9976  17672.5  134.802
 16.1956  17153.2  130.689
 16.3936  16700.9  128.129
 16.5916  16518.6  128.048
 16.7896  16495.3  128.031
 16.9876  16332.4  128.866
 17.1856  16119.8  126.377
 17.3836  15597.3  124.213
 17.5816  15410.6  123.965
 17.7796  15072.4  122.527
 17.9776  15104  123.453
 18.1756  15411  123.379
 18.3736  15474.4  124.156
 18.5716  14890.1  121.54
 18.7696  14769.4  120.613
 18.9676  14426.7  119.013
 19.1656  14219.5  118.709
 19.3636  14268.6  119.122
 19.5616  14231.3  119.137
 19.7596  14288.2  118.775
 19.9576  14701.7  120.534
 20.1556  14116  118.628
 20.3536  13895.6  117.078
 20.5516  13515.1  115.912
 20.7496  13341.8  115.104
 20.9476  13266.6  114.534
 21.1456  13479.1  115.773
 21.3436  13119.5  114.171
 21.5416  13090.9  114.049
 21.7396  12808.9  112.655
 21.9376  12866.2  112.68
 22.1356  12970.5  113.256
 22.3336  12938.3  113.399
 22.5316  12833.1  113.028
 22.7296  12992.3  113.085
 22.9276  12612.5  112.094
 23.1256  12996.9  113.257
 23.3236  12738.3  112.704
 23.5216  12680.4  112.101
 23.7196  12496.7  111.235
 23.9176  12477.1  110.903
 24.1156  12482.8  111.398
 24.3136  11978.3  109.92
 24.5116  11959.7  109.361
 24.7096  11683.7  107.909
 24.9076  11545.9  107.3
 25.1056  11157.7  105.94
 25.3036  11278.2  106.008
 25.5016  11300.5  106.151
 25.6996  11287.4  105.668
 25.8976  11211.3  105.755
 26.0956  11123.7  105.355
 26.2936  11137.5  105.063
 26.4916  11081.2  104.677
 26.6896  10869.2  103.968
 26.8876  10685.3  102.94
 27.0856  10652.2  102.826
 27.2836  10573.2  102.343
 27.4816  10538.2  102.111
 27.6796  10375.2  101.691
 27.8776  10385  101.598
 28.0756  10347.4  101.696
 28.2736  10210.9  100.608
 28.4716  10115.2  100.184
 28.6696  9965  99.2818
 28.8676  10060.4  100.105
 29.0656  9793.7  98.7524
 29.2636  9813.88  98.6466
 29.4616  9657.9  98.0349
 29.6596  9843.76  98.535
 29.8576  9705.59  98.5323
 30.0556  9803.79  98.9081
 30.2536  9654.4  97.9414
 30.4516  9570.73  97.1823
 30.6496  9659.79  97.353
 30.8476  9577.9  97.3851
 31.0456  9454.37  96.7236
 31.2436  9302.89  95.2145
 31.4416  9196.88  94.846
 31.6396  9501.99  96.4537
 31.8376  9299.06  94.9619
 32.0356  9235.08  95.1985
 32.2336  9136.84  94.081
 32.4316  9166.82  94.6407
 32.6296  9057.95  93.9137
 32.8276  9169.8  94.2567
 33.0256  8962.97  93.2744
 33.2236  8866.25  92.9174
 33.4216  9056.74  93.5966
 33.6196  8942.47  93.2949
 33.8176  8987.59  93.6907
 34.0156  8816.85  92.416
 34.2136  8731.22  92.0104
 34.4116  8719.48  92.0948
 34.6096  8762.18  92.1957
 34.8076  8649.22  92.0162
 35.0056  8631.22  91.6074
 35.2036  8576.73  91.5305
 35.4016  8543.13  91.266
 35.5996  8478.27  90.9601
 35.7976  8480.37  91.2338
 35.9956  8546.34  91.2403
 36.1936  8594.61  91.3649
 36.3916  8419.59  90.6055
 36.5896  8321.28  91.0467
 36.7876  8342.91  90.5661
 36.9856  8246.74  90.0647
 37.1836  8342.32  89.6852
 37.3816  8254.69  89.5799
 37.5796  8183.84  90.9321
 37.7776  8127.92  88.9938
 37.9756  8099.52  88.7226
 38.1736  8278.26  89.8937
 38.3716  8251.11  90.0232
 38.5696  8179.23  90.0024
 38.7676  7813.02  87.4815
 38.9656  8059.75  88.484
 39.1636  7892.16  87.8286
 39.3616  8029.2  88.5117
 39.5596  7852.27  88.3778
 39.7576  7855.81  87.7683
 39.9556  8006.63  88.2456
 40.1536  8032.93  88.5909
 40.3516  8058.62  88.7412
 40.5496  8052.63  88.973
 40.7476  8099.15  89.2357
 40.9456  8121.79  89.1097
 41.1436  8021.45  88.281
 41.3416  7916.82  88.033
 41.5396  8038.64  88.5222
 41.7376  7912.03  88.0839
 41.9356  7885.19  87.7924
 42.1336  7965.41  88.3868
 42.3316  7961.6  88.5597
 42.5296  7910.2  87.7929
 42.7276  8030.34  88.7011
 42.9256  7864.73  87.651
 43.1236  7734.76  87.0314
 43.3216  7782.67  87.0488
 43.5196  7684.35  86.5615
 43.7176  7694.97  87.015
 43.9156  7661.45  86.7274
 44.1136  7633.66  86.1216
 44.3116  7638.33  86.1628
 44.5096  7606.18  86.2885
 44.7076  7509.73  85.6735
 44.9056  7614.53  86.1471
 45.1036  7503.7  85.1455
 45.3016  7459.53  85.3944
 45.4996  7466.37  85.3709
 45.6976  7370.96  84.9961
 45.8956  7485.39  85.4716
 46.0936  7467  85.3755
 46.2916  7424.62  85.1076
 46.4896  7200.04  83.8443
 46.6876  7294.02  85.0986
 46.8856  7226.35  83.9616
 47.0836  7229.19  84.2269
 47.2816  7063.12  83.1344
 47.4796  7166.73  83.8537
 47.6776  7058.13  84.1517
 47.8756  7073.92  83.4174
 48.0736  7111.95  84.1011
 48.2716  6950.75  82.9562
 48.4696  6938.23  82.4838
 48.6676  7084.4  83.9327
 48.8656  7059.87  83.5165
 49.0636  7054.79  83.4417
 49.2616  6893.76  82.5022
 49.4596  6986.62  82.6182
 49.6576  6804.87  81.7728
 49.8556  6982.63  82.8509
 50.0536  6910.31  82.8719
 50.2516  6936.18  83.1564
 50.4496  6772.78  81.8267
 50.6476  6886.09  82.1942
 50.8456  6810.51  81.8272
 51.0436  6689.9  81.5321
 51.2416  6624.82  80.8059
 51.4396  6499.96  80.4365
 51.6376  6513.88  80.3527
 51.8356  6588.84  80.4481
 52.0336  6553.03  80.7413
 52.2316  6486.8  80.6819
 52.4296  6440.63  80.0847
 52.6276  6503.08  80.5872
 52.8256  6455.65  79.8625
 53.0236  6405.09  80.1803
 53.2216  6397.35  80.1685
 53.4196  6266.27  79.2661
 53.6176  6343.25  80.2234
 53.8156  6376.85  80.1035
 54.0136  6374.15  80.2577
 54.2116  6253.18  79.1651
 54.4096  6407.77  80.1836
 54.6076  6252.8  79.56
 54.8056  6246.69  79.3061
 55.0036  6286.54  79.9491
 55.2016  6234.87  79.1758
 55.3996  6276.16  79.4013
 55.5976  6224.71  79.2662
 55.7956  6311.08  79.6299
 55.9936  6196.98  79.0403
 56.1916  6138.01  78.6741
 56.3896  6221.2  79.1979
 56.5876  6054.36  78.678
 56.7856  6112.41  78.531
 56.9836  6136.65  78.477
 57.1816  6208.31  79.3193
 57.3796  6243.54  79.3344
 57.5776  6085.64  78.2597
 57.7756  6146.01  79.2863
 57.9736  6136.69  78.8926
 58.1716  6207.03  79.5851
 58.3696  6031.76  78.2047
 58.5676  6184.12  78.6643
 58.7656  6166.2  79.2236
 58.9636  6233.81  79.69
 59.1616  6203.65  79.6177
 59.3596  6264.14  79.262
 59.5576  6309.74  79.6082
 59.7556  6163.75  79.1043
 59.9536  6173.77  79.0664
 60.1516  6214.84  80.19
 60.1996  0.0000000E+00  0.0000000E+00