File: docs/examples/XRD/IS17_D/Data/IS17_D/17_Db_f00025.xye
# /beamlines/bl04/projects/cycle2025-II/20250340211-lsimonelli/DATA/IS17_D/17_Db_f00025.xye : mythproc.py merge -s 0.006 -l 0.5 -f /beamlines/bl04/inhouse/ff/FlatField/ff_20Nov2024rod8mm60s_17keV.raw -b True -c true -o xye /beamlines/bl04/projects/cycle2025-II/20250340211-lsimonelli/DATA/IS17_D/17_Db_00025.dat
# IsMon = [6779412, 6780653, 6783226]  IsPos = [-1.5000, -2.4885, -3.4986]
# Wave = 0.4962  CalPath /beamlines/bl04/projects/cycle2025-II/20250340211-lsimonelli/DATA/Align/Si_Pos1_25keV_f00001.cal
# Date = 2025-09-24_00:39:38 Dt = 4.8000  Bin = 0.0060  <imon> = 6781097 +/- 1588 (Min/Max) 6779412 / 6783226
# icurr 252.6313  mocoIn 1.7237E-05  mocoOut 0.8084  i15 7.09981e+06  imon 6.7811e+06  i7 4.6667  iEMpd_timer 4.8000  iEMpd_1 3.5586E-08  iEMpd_2 7.7858E-08  iEMpd_3 1.7431E-08  iEMpd_4 4.7706E-08  iEMhp_timer 4.8000  iEMhp_1 4.9360E-06  iEMhp_2 -2.4226E-08  iEMhp_3 -2.3730E-08  iEMhp_4 -2.0595E-08
#      9776
 1.7416  70545.1  265.712
 1.9396  48543.8  220.702
 2.1376  34994.2  187.382
 2.3356  31488.3  177.374
 2.5336  29368.6  171.903
 2.7316  26681.5  163.96
 2.9296  25625.7  160.834
 3.1276  24975.8  158.332
 3.3256  24108.5  155.218
 3.5236  25764.2  160.415
 3.7216  23635.9  154.739
 3.9196  23354.6  153.014
 4.1176  23269.3  152.526
 4.3156  23957.1  154.925
 4.5136  26589.2  162.2
 4.7116  27516.8  166.143
 4.9096  27024.1  164.077
 5.1076  26556.9  163.238
 5.3056  27059.8  164.375
 5.5036  26428  162.481
 5.7016  27066.4  164.384
 5.8996  27510.3  164.957
 6.0976  28277  168.646
 6.2956  28287.1  168.026
 6.4936  29182.5  169.862
 6.6916  29461.9  171.663
 6.8896  29958.2  172.946
 7.0876  31255.1  177.317
 7.2856  30876.7  175.373
 7.4836  31016.3  175.126
 7.6816  31904.3  178.128
 7.8796  32481.4  179.735
 8.0776  34171.4  185.323
 8.2756  35704.3  188.064
 8.4736  36170.5  189.103
 8.6716  35330.8  187.517
 8.8696  36281.4  190.517
 9.0676  35603.7  188.052
 9.2656  34297.5  185.269
 9.4636  33298.5  181.03
 9.6616  32719.7  180.162
 9.8596  32020.2  177.699
 10.0576  30125  173.024
 10.2556  29315.1  171.124
 10.4536  28672.6  168.835
 10.6516  28069.3  167.266
 10.8496  26887.8  163.116
 11.0476  25811.3  159.788
 11.2456  25158.5  158.324
 11.4436  25601.8  158.892
 11.6416  25210.2  158.006
 11.8396  23933.6  154.163
 12.0376  23466.5  152.279
 12.2356  23099.4  151.535
 12.4336  23300.1  151.719
 12.6316  23077.4  151.255
 12.8296  23116.7  150.995
 13.0276  23313.4  151.84
 13.2256  23606  153.149
 13.4236  23495.9  152.571
 13.6216  23812.1  153.591
 13.8196  26112.2  160.254
 14.0176  22867.9  150.587
 14.2156  22472.4  148.332
 14.4136  21404.7  146.116
 14.6116  21254.6  144.82
 14.8096  20446.1  142.012
 15.0076  19678.4  143.165
 15.2056  18688.7  135.398
 15.4036  17637.7  132.343
 15.6016  17444.2  130.724
 15.7996  17115.3  129.75
 15.9976  17031.8  132.308
 16.1956  16560.6  128.366
 16.3936  16257.5  126.374
 16.5916  15930.8  125.745
 16.7896  15931.1  125.797
 16.9876  15760.1  126.559
 17.1856  15521.5  124.013
 17.3836  15267.4  122.904
 17.5816  14702.4  121.082
 17.7796  14684.1  120.925
 17.9776  14257.6  119.919
 18.1756  14594.4  120.086
 18.3736  14438.8  119.922
 18.5716  14109.3  118.306
 18.7696  13996.3  117.395
 18.9676  13757.3  116.193
 19.1656  13544.3  115.866
 19.3636  13411.2  115.491
 19.5616  13356.5  115.418
 19.7596  13734.5  116.448
 19.9576  13960.3  117.444
 20.1556  13547.7  116.207
 20.3536  13210.5  114.148
 20.5516  12897.7  113.228
 20.7496  12869.7  112.958
 20.9476  12889.5  112.893
 21.1456  12601.5  111.938
 21.3436  12542.8  111.629
 21.5416  12432.8  111.155
 21.7396  12148.2  109.718
 21.9376  12279.7  110.091
 22.1356  12294.7  110.302
 22.3336  12047.5  109.419
 22.5316  11899.2  108.85
 22.7296  12065.2  108.981
 22.9276  11901  108.894
 23.1256  12039.7  109.012
 23.3236  12342.1  110.945
 23.5216  12326.8  110.509
 23.7196  12224.6  110.23
 23.9176  12368.5  110.405
 24.1156  11932.8  108.889
 24.3136  11448.3  107.46
 24.5116  11791.2  108.582
 24.7096  11330.1  106.244
 24.9076  11157.8  105.476
 25.1056  10987.5  104.852
 25.3036  10767.5  103.581
 25.5016  10675.1  103.168
 25.6996  10697.6  102.864
 25.8976  10823.1  103.899
 26.0956  10524.5  102.462
 26.2936  10500.4  102.011
 26.4916  10800.5  103.32
 26.6896  10421.5  101.783
 26.8876  10404.8  101.569
 27.0856  10237.7  100.776
 27.2836  10056.3  99.9584
 27.4816  9882.21  98.8818
 27.6796  9913.86  99.3964
 27.8776  10194.1  100.641
 28.0756  9852.45  99.228
 28.2736  9859.73  98.8563
 28.4716  9602.27  97.6053
 28.6696  9648.17  97.6941
 28.8676  9474.23  97.1512
 29.0656  9449.13  96.9944
 29.2636  9499.61  96.9754
 29.4616  9174.38  95.552
 29.6596  9179.64  95.1563
 29.8576  8913.74  94.4303
 30.0556  8970.04  94.6053
 30.2536  9147.59  95.3382
 30.4516  9367.52  96.1207
 30.6496  9150.15  94.7426
 30.8476  9220.82  95.5476
 31.0456  9151.51  95.1502
 31.2436  9258.11  94.9661
 31.4416  9066.61  94.1665
 31.6396  9015.72  93.9522
 31.8376  9085.17  93.8294
 32.0356  9120.53  94.5831
 32.2336  8937.4  93.0564
 32.4316  8776.31  92.6009
 32.6296  8739.04  92.1707
 32.8276  8633.01  91.4748
 33.0256  8620.2  91.4658
 33.2236  8766.17  92.3768
 33.4216  8503.9  90.6749
 33.6196  8597.15  91.4723
 33.8176  8541.52  91.3382
 34.0156  8444.51  90.4492
 34.2136  8574.42  91.1648
 34.4116  8231.86  89.4879
 34.6096  8372.42  90.1258
 34.8076  8262.38  89.9443
 35.0056  8254.08  89.5731
 35.2036  8429.48  90.7459
 35.4016  8123.2  88.9891
 35.5996  8179.27  89.3389
 35.7976  8201.32  89.7131
 35.9956  8270.6  89.7443
 36.1936  8219.42  89.328
 36.3916  7958.54  88.0947
 36.5896  8015.75  89.8412
 36.7876  7871.95  87.9762
 36.9856  7711.96  87.0956
 37.1836  7769.22  86.5521
 37.3816  7847.22  87.342
 37.5796  7845.92  89.0365
 37.7776  7875.59  87.5935
 37.9756  7980.36  88.0637
 38.1736  7977.47  88.2305
 38.3716  7950.54  88.3627
 38.5696  7637.73  86.951
 38.7676  7686.51  86.7679
 38.9656  7698.58  86.4645
 39.1636  7801.29  87.2941
 39.3616  7677.07  86.5534
 39.5596  7574.34  86.7735
 39.7576  7591.03  86.2836
 39.9556  7625.75  86.127
 40.1536  7837.89  87.5067
 40.3516  7719.71  86.9341
 40.5496  7681.99  86.6759
 40.7476  7791.72  87.5123
 40.9456  7852.15  87.6117
 41.1436  7909.97  87.6596
 41.3416  7638.19  86.4694
 41.5396  7615.16  86.1511
 41.7376  7578.81  86.204
 41.9356  7642.2  86.4196
 42.1336  7771.65  87.2904
 42.3316  7525.01  86.0933
 42.5296  7598.89  86.0354
 42.7276  7626.41  86.4329
 42.9256  7694.81  86.6936
 43.1236  7563.32  86.0455
 43.3216  7614.85  86.1956
 43.5196  7564.2  85.8722
 43.7176  7397.53  85.3104
 43.9156  7323.28  84.793
 44.1136  7399.76  84.7968
 44.3116  7415.05  84.8966
 44.5096  7269.26  84.3599
 44.7076  7417.51  85.1479
 44.9056  7560.05  85.8339
 45.1036  7383.73  84.4516
 45.3016  7357.15  84.7999
 45.4996  7302.29  84.4119
 45.6976  7246.12  84.2652
 45.8956  7378.26  84.8559
 46.0936  7366.08  84.5428
 46.2916  7452.34  85.2599
 46.4896  7440.45  85.2147
 46.6876  7206.83  84.5803
 46.8856  7163.31  83.7075
 47.0836  7138.29  83.698
 47.2816  7144.05  83.6101
 47.4796  7193.29  84.0043
 47.6776  7085.03  84.2995
 47.8756  7118.42  83.6841
 48.0736  7228.91  84.7643
 48.2716  7138.27  84.0659
 48.4696  7220.19  84.1366
 48.6676  7097.3  84.0028
 48.8656  7214  84.4207
 49.0636  7280.12  84.7521
 49.2616  7085.03  83.6416
 49.4596  7169.76  83.7061
 49.6576  7069.99  83.3452
 49.8556  7120.82  83.6651
 50.0536  7142.59  84.2458
 50.2516  7097.8  84.0861
 50.4496  7117.42  83.8842
 50.6476  7064.55  83.2492
 50.8456  7182.97  84.0226
 51.0436  6923.31  82.9445
 51.2416  6832.15  82.0692
 51.4396  6689.07  81.6054
 51.6376  6892.58  82.6607
 51.8356  6830.34  81.912
 52.0336  6840.99  82.4715
 52.2316  6861.83  82.9725
 52.4296  6789.82  82.2319
 52.6276  6737.04  82.0196
 52.8256  6790.6  81.9097
 53.0236  6926.26  83.3702
 53.2216  6806.68  82.6663
 53.4196  6843.71  82.8207
 53.6176  6763.72  82.8355
 53.8156  6730.06  82.3012
 54.0136  6441.7  80.6771
 54.2116  6611.41  81.3812
 54.4096  6479.91  80.622
 54.6076  6399.31  80.4693
 54.8056  6361.83  80.0196
 55.0036  6537.15  81.3719
 55.2016  6313.75  79.5512
 55.3996  6209.59  78.9567
 55.5976  6364.84  80.1372
 55.7956  6292.57  79.4928
 55.9936  6468.69  80.7185
 56.1916  6201.4  79.0591
 56.3896  6094.89  78.3562
 56.5876  6095.66  78.923
 56.7856  6091.75  78.4101
 56.9836  6241.43  79.1233
 57.1816  6259.24  79.5994
 57.3796  6055.41  78.0924
 57.5776  6171.59  78.7369
 57.7756  5974.87  78.1486
 57.9736  6045.97  78.2963
 58.1716  5971.26  78.0502
 58.3696  5769.02  76.4887
 58.5676  5798  76.1498
 58.7656  5814.61  76.9345
 58.9636  5733.41  76.4218
 59.1616  5884.7  77.556
 59.3596  5848.64  76.5831
 59.5576  5778.62  76.1798
 59.7556  5929.72  77.5836
 59.9536  5725.93  76.1404
 60.1516  5652.9  76.4744
 60.1996  0.0000000E+00  0.0000000E+00