File: docs/examples/XRD/IS17_D/Data/IS17_D/17_Da_f00056.xye
# /beamlines/bl04/projects/cycle2025-II/20250340211-lsimonelli/DATA/IS17_D/17_Da_f00056.xye : mythproc.py merge -s 0.006 -l 0.5 -f /beamlines/bl04/inhouse/ff/FlatField/ff_20Nov2024rod8mm60s_17keV.raw -b True -c true -o xye /beamlines/bl04/projects/cycle2025-II/20250340211-lsimonelli/DATA/IS17_D/17_Da_00056.dat
# IsMon = [6768046, 6765599, 6767579]  IsPos = [-1.4999, -2.4885, -3.4986]
# Wave = 0.4962  CalPath /beamlines/bl04/projects/cycle2025-II/20250340211-lsimonelli/DATA/Align/Si_Pos1_25keV_f00001.cal
# Date = 2025-09-24_09:08:26 Dt = 4.8000  Bin = 0.0060  <imon> = 6767075 +/- 1061 (Min/Max) 6765599 / 6768046
# icurr 250.6212  mocoIn 1.7097E-05  mocoOut 0.8024  i15 7.08565e+06  imon 6.76707e+06  i7 5.6667  iEMpd_timer 4.8000  iEMpd_1 3.4213E-08  iEMpd_2 7.7902E-08  iEMpd_3 1.6743E-08  iEMpd_4 4.7074E-08  iEMhp_timer 4.8000  iEMhp_1 4.8966E-06  iEMhp_2 -2.4841E-08  iEMhp_3 -2.4106E-08  iEMhp_4 -2.2714E-08
#      9776
 1.7416  71061  266.63
 1.9396  46169.6  215.201
 2.1376  32942.3  181.77
 2.3356  29282.9  171.016
 2.5336  27725  166.991
 2.7316  25813.3  161.254
 2.9296  24542.4  157.403
 3.1276  24166.8  155.736
 3.3256  23815  154.276
 3.5236  25719.7  160.278
 3.7216  23623.4  154.702
 3.9196  23106.9  152.231
 4.1176  23050.9  151.812
 4.3156  24253.3  155.887
 4.5136  26637.3  162.352
 4.7116  27759.6  166.881
 4.9096  27022.7  164.084
 5.1076  26685.1  163.628
 5.3056  27074.9  164.445
 5.5036  26630.8  163.107
 5.7016  27021.4  164.249
 5.8996  27788.1  165.781
 6.0976  28541.5  169.45
 6.2956  29178  170.666
 6.4936  29828.9  171.74
 6.6916  30054.7  173.394
 6.8896  30990.6  175.931
 7.0876  32033.8  179.605
 7.2856  31977.4  178.498
 7.4836  32299.2  178.725
 7.6816  33100.4  181.465
 7.8796  34545.5  185.385
 8.0776  36233.5  190.849
 8.2756  38107.9  194.305
 8.4736  38869.6  196.049
 8.6716  38180  194.951
 8.8696  37840.9  194.538
 9.0676  36998.3  191.716
 9.2656  35988.9  189.771
 9.4636  35669.6  187.322
 9.6616  35105.4  186.628
 9.8596  33474.9  181.713
 10.0576  31739.5  177.619
 10.2556  30757.7  175.28
 10.4536  29820.3  172.19
 10.6516  28827.5  169.49
 10.8496  28125.9  166.823
 11.0476  27363.5  164.534
 11.2456  26532.5  162.596
 11.4436  26995.8  163.159
 11.6416  27016.3  163.596
 11.8396  25126.6  157.966
 12.0376  25178.4  157.754
 12.2356  24495.1  156.051
 12.4336  24197.5  154.616
 12.6316  24040.2  154.373
 12.8296  24419  155.227
 13.0276  25066.6  157.453
 13.2256  25135.9  158.037
 13.4236  24907.1  157.084
 13.6216  24783.4  156.708
 13.8196  24666.4  156.109
 14.0176  24336  155.355
 14.2156  23901.7  152.996
 14.4136  22709.6  150.506
 14.6116  22398.4  148.676
 14.8096  21718.9  146.385
 15.0076  20624  146.505
 15.2056  20438.3  141.611
 15.4036  19261.7  138.31
 15.6016  18952.8  136.269
 15.7996  18433.2  134.668
 15.9976  17647.3  134.726
 16.1956  17077.5  130.387
 16.3936  16827.4  128.6
 16.5916  16464.2  127.835
 16.7896  16621.9  128.509
 16.9876  16495.8  129.505
 17.1856  16186.7  126.643
 17.3836  15731.4  124.753
 17.5816  15312.3  123.564
 17.7796  15060.7  122.478
 17.9776  14988.5  122.975
 18.1756  14932  121.446
 18.3736  14906.8  121.864
 18.5716  14464.5  119.789
 18.7696  14569.5  119.793
 18.9676  14286  118.423
 19.1656  14141.1  118.386
 19.3636  14125.2  118.527
 19.5616  13992.5  118.134
 19.7596  14108.7  118.021
 19.9576  14441  119.463
 20.1556  14803.2  121.49
 20.3536  13909.7  117.139
 20.5516  13671.3  116.58
 20.7496  13415.4  115.421
 20.9476  13160.7  114.069
 21.1456  13374.2  115.328
 21.3436  13089.2  114.042
 21.5416  13044.6  113.846
 21.7396  12957.5  113.306
 21.9376  12868.6  112.685
 22.1356  12877.7  112.739
 22.3336  13098.4  114.102
 22.5316  12874.8  113.234
 22.7296  12849.6  112.468
 22.9276  12767.4  112.8
 23.1256  12963.3  113.125
 23.3236  12849.5  113.179
 23.5216  12642.6  111.919
 23.7196  12537.3  111.405
 23.9176  12512.7  111.047
 24.1156  12376.6  110.916
 24.3136  12125.6  110.588
 24.5116  12000.9  109.544
 24.7096  11564.5  107.354
 24.9076  11496.3  107.056
 25.1056  11405.7  106.836
 25.3036  11295  106.093
 25.5016  11330.9  106.289
 25.6996  11190.4  105.213
 25.8976  11089.9  105.172
 26.0956  11108.2  105.283
 26.2936  11162.1  105.183
 26.4916  11156  105.028
 26.6896  10845.9  103.86
 26.8876  10660.7  102.82
 27.0856  10675.4  102.906
 27.2836  10588.3  102.577
 27.4816  10379.2  101.327
 27.6796  10426.3  101.938
 27.8776  10302.8  101.192
 28.0756  10209.5  101.023
 28.2736  10323.4  101.156
 28.4716  9907.06  99.1464
 28.6696  10019.8  99.5554
 28.8676  9873.29  99.1747
 29.0656  9837.05  98.9717
 29.2636  9871.77  98.8504
 29.4616  9713.74  98.3302
 29.6596  9718.09  97.9168
 29.8576  9568.87  97.8487
 30.0556  9666.57  98.2178
 30.2536  9773.01  98.5537
 30.4516  9495.23  96.7872
 30.6496  9623.94  97.165
 30.8476  9681.84  97.9054
 31.0456  9426.09  96.5623
 31.2436  9390.05  95.6446
 31.4416  9306.67  95.4009
 31.6396  9469.78  96.2854
 31.8376  9347.91  95.2083
 32.0356  9156.24  94.7941
 32.2336  9126.45  94.0254
 32.4316  9132.15  94.464
 32.6296  9061.8  93.8678
 32.8276  9102.95  93.9175
 33.0256  9078.81  93.8724
 33.2236  8940.49  93.2995
 33.4216  9027.77  93.4452
 33.6196  8969.51  93.4404
 33.8176  8916.87  93.3282
 34.0156  8893.16  92.8149
 34.2136  8841.99  92.587
 34.4116  8818.38  92.6184
 34.6096  8713.81  91.9395
 34.8076  8576.66  91.6291
 35.0056  8569.18  91.2776
 35.2036  8698.27  92.1689
 35.4016  8581.84  91.4805
 35.5996  8528.63  91.2292
 35.7976  8520.18  91.4619
 35.9956  8551.07  91.2654
 36.1936  8444.73  90.5645
 36.3916  8484.25  90.9565
 36.5896  8421.42  92.0665
 36.7876  8408.3  90.9317
 36.9856  8271.91  90.2211
 37.1836  8244.26  89.1689
 37.3816  8446.99  90.6269
 37.5796  8238.62  91.224
 37.7776  8094.99  88.8025
 37.9756  8161.3  89.0482
 38.1736  8188.91  89.3955
 38.3716  8156.05  89.4944
 38.5696  8182.08  90.0229
 38.7676  7853.81  87.7069
 38.9656  7950.48  87.8809
 39.1636  7992.9  88.3486
 39.3616  7973.65  88.2083
 39.5596  8001.07  89.208
 39.7576  7944.81  88.2682
 39.9556  7995.04  88.1866
 40.1536  8147.42  89.2215
 40.3516  8095.23  89.0346
 40.5496  8166.92  89.3938
 40.7476  8095.98  89.2244
 40.9456  8054.05  88.7369
 41.1436  8119.13  88.8098
 41.3416  7992.9  88.4613
 41.5396  8018.8  88.4092
 41.7376  7961.79  88.3585
 41.9356  7923.42  88.0042
 42.1336  8017.77  88.6721
 42.3316  7940.05  88.4467
 42.5296  7987.54  88.2152
 42.7276  7988.77  88.4701
 42.9256  7927.76  88.0014
 43.1236  7868.45  87.7802
 43.3216  7932.33  87.9913
 43.5196  7785.56  87.1301
 43.7176  7767.74  87.4261
 43.9156  7572.02  86.2321
 44.1136  7627.36  86.0953
 44.3116  7623.28  86.0902
 44.5096  7631.29  86.4463
 44.7076  7701.61  86.7703
 44.9056  7621.91  86.1787
 45.1036  7401.02  84.5509
 45.3016  7442.62  85.287
 45.4996  7507.47  85.5971
 45.6976  7356.05  84.907
 45.8956  7390.23  84.9258
 46.0936  7439.93  85.2083
 46.2916  7380.78  84.8552
 46.4896  7422.65  85.1179
 46.6876  7230.05  84.718
 46.8856  7190.32  83.8636
 47.0836  7295.36  84.6069
 47.2816  7252.6  84.244
 47.4796  7190.1  83.9804
 47.6776  7129.77  84.5713
 47.8756  7179.37  84.0408
 48.0736  7129.2  84.1819
 48.2716  7023.52  83.391
 48.4696  7094.65  83.4091
 48.6676  7030.17  83.6122
 48.8656  7074.26  83.61
 49.0636  7056  83.4323
 49.2616  6994.51  83.1188
 49.4596  6976.04  82.5614
 49.6576  6976.17  82.7809
 49.8556  6857.5  82.1058
 50.0536  6897.66  82.7896
 50.2516  6848.84  82.5995
 50.4496  6858.98  82.3492
 50.6476  6885.18  82.1895
 50.8456  6806.38  81.7914
 51.0436  6642.21  81.2457
 51.2416  6720.02  81.4016
 51.4396  6448.23  80.1239
 51.6376  6609.55  80.9431
 51.8356  6607.07  80.5666
 52.0336  6475.69  80.2516
 52.2316  6524.37  80.9045
 52.4296  6652.81  81.384
 52.6276  6520.94  80.6932
 52.8256  6614.68  80.8284
 53.0236  6392.19  80.097
 53.2216  6383.11  80.0714
 53.4196  6396.92  80.0842
 53.6176  6403.79  80.6037
 53.8156  6348.12  79.9248
 54.0136  6419.43  80.5507
 54.2116  6388.74  80.0149
 54.4096  6329.91  79.6982
 54.6076  6278.28  79.722
 54.8056  6244.65  79.2965
 55.0036  6346.62  80.3366
 55.2016  6344.88  79.8641
 55.3996  6297.24  79.5382
 55.5976  6276.76  79.5976
 55.7956  6348.72  79.8597
 55.9936  6242.55  79.3273
 56.1916  6247.55  79.3779
 56.3896  6214.19  79.1578
 56.5876  6196.85  79.6003
 56.7856  6243.24  79.3736
 56.9836  6123.86  78.3972
 57.1816  6264.98  79.6751
 57.3796  6256.41  79.3935
 57.5776  6319.86  79.7447
 57.7756  6118.9  79.1002
 57.9736  6134.77  78.8842
 58.1716  6115.82  79.0042
 58.3696  6202.18  79.3109
 58.5676  6247.14  79.0705
 58.7656  6214.92  79.5448
 58.9636  6202.39  79.4993
 59.1616  6217.06  79.7083
 59.3596  6206.13  78.8989
 59.5576  6326.46  79.7186
 59.7556  6201.94  79.354
 59.9536  6366.08  80.2935
 60.1516  6169.25  79.9002
 60.1996  0.0000000E+00  0.0000000E+00