File: docs/examples/XRD/IS17_D/Data/IS17_D/17_Da_f00031.xye
# /beamlines/bl04/projects/cycle2025-II/20250340211-lsimonelli/DATA/IS17_D/17_Da_f00031.xye : mythproc.py merge -s 0.006 -l 0.5 -f /beamlines/bl04/inhouse/ff/FlatField/ff_20Nov2024rod8mm60s_17keV.raw -b True -c true -o xye /beamlines/bl04/projects/cycle2025-II/20250340211-lsimonelli/DATA/IS17_D/17_Da_00031.dat
# IsMon = [6755370, 6759495, 6757141]  IsPos = [-1.5000, -2.4885, -3.4986]
# Wave = 0.4962  CalPath /beamlines/bl04/projects/cycle2025-II/20250340211-lsimonelli/DATA/Align/Si_Pos1_25keV_f00001.cal
# Date = 2025-09-24_02:10:26 Dt = 4.8000  Bin = 0.0060  <imon> = 6757335 +/- 1690 (Min/Max) 6755370 / 6759495
# icurr 250.0901  mocoIn 1.7073E-05  mocoOut 0.8007  i15 7.07047e+06  imon 6.75734e+06  i7 9.6667  iEMpd_timer 4.8000  iEMpd_1 3.5394E-08  iEMpd_2 7.8096E-08  iEMpd_3 1.6299E-08  iEMpd_4 4.8713E-08  iEMhp_timer 4.8000  iEMhp_1 4.8865E-06  iEMhp_2 -2.5609E-08  iEMhp_3 -2.3794E-08  iEMhp_4 -2.0461E-08
#      9776
 1.7416  69429.4  263.608
 1.9396  45050.2  212.612
 2.1376  31793.5  178.611
 2.3356  28334.3  168.26
 2.5336  26679.1  163.846
 2.7316  24637.2  157.537
 2.9296  23765.4  154.888
 3.1276  23224.1  152.677
 3.3256  22937.7  151.392
 3.5236  25074.3  158.248
 3.7216  22779.9  151.915
 3.9196  22290.1  149.514
 4.1176  22237.8  149.111
 4.3156  23405  153.141
 4.5136  25869.6  159.986
 4.7116  26756.4  163.833
 4.9096  26284.2  161.826
 5.1076  26142.3  161.965
 5.3056  26414.6  162.426
 5.5036  26055.1  161.335
 5.7016  26379.6  162.288
 5.8996  26998.4  163.399
 6.0976  27852.5  167.403
 6.2956  28226.8  167.856
 6.4936  28934.6  169.155
 6.6916  29136.8  170.73
 6.8896  29772.2  172.434
 7.0876  31022.8  176.668
 7.2856  30710.1  174.923
 7.4836  30974.7  175.019
 7.6816  31501.1  177.026
 7.8796  33112  181.483
 8.0776  34597.6  186.472
 8.2756  36314.7  189.669
 8.4736  36930.8  191.07
 8.6716  36241.5  189.905
 8.8696  36135.2  190.12
 9.0676  35063.3  186.658
 9.2656  34008.2  184.501
 9.4636  33540.5  181.668
 9.6616  32785.4  180.372
 9.8596  31725.4  176.896
 10.0576  29657.5  171.676
 10.2556  29086.1  170.443
 10.4536  28223.2  167.511
 10.6516  27423.9  165.314
 10.8496  26701.4  162.55
 11.0476  25870.9  159.97
 11.2456  25107.2  158.157
 11.4436  25382.4  158.211
 11.6416  25377.7  158.556
 11.8396  23841.5  153.883
 12.0376  23849.4  153.526
 12.2356  23225.5  151.945
 12.4336  23087.2  151.023
 12.6316  22792.8  150.317
 12.8296  23248.8  151.462
 13.0276  23711.2  153.132
 13.2256  23747.7  153.611
 13.4236  23511.1  152.621
 13.6216  23478.5  152.534
 13.8196  23543.2  152.511
 14.0176  23212.1  151.717
 14.2156  22777.6  149.348
 14.4136  21612.8  146.83
 14.6116  21456  145.514
 14.8096  20774.6  143.172
 15.0076  19597.4  142.792
 15.2056  19257.7  137.446
 15.4036  18514.5  135.587
 15.6016  17967.2  132.668
 15.7996  17427  130.932
 15.9976  16704.3  131.056
 16.1956  16321.1  127.484
 16.3936  16150.6  126.005
 16.5916  15659.2  124.689
 16.7896  15844.7  125.481
 16.9876  15574.8  125.831
 17.1856  15469.1  123.796
 17.3836  14969.4  121.69
 17.5816  14542.4  120.415
 17.7796  14523.3  120.266
 17.9776  14247.4  119.898
 18.1756  14397.4  119.258
 18.3736  14371.8  119.651
 18.5716  13956.2  117.668
 18.7696  14004.9  117.45
 18.9676  13627.6  115.668
 19.1656  13530.6  115.802
 19.3636  13320.6  115.093
 19.5616  13590.9  116.425
 19.7596  13507.9  115.484
 19.9576  13823.6  116.876
 20.1556  13905.1  117.741
 20.3536  13238.7  114.273
 20.5516  13111.9  114.16
 20.7496  12581.3  111.689
 20.9476  12652.5  111.852
 21.1456  12710.4  112.422
 21.3436  12592.3  111.857
 21.5416  12470.3  111.312
 21.7396  12237.6  110.12
 21.9376  12305  110.182
 22.1356  12348.3  110.537
 22.3336  12307.4  110.591
 22.5316  12339.1  110.822
 22.7296  12357.8  110.285
 22.9276  12109.4  109.842
 23.1256  12459  110.899
 23.3236  12161.5  110.111
 23.5216  12231.5  110.099
 23.7196  12073.6  109.553
 23.9176  12111.5  109.27
 24.1156  11997.2  109.216
 24.3136  11487.1  107.637
 24.5116  11429.5  106.902
 24.7096  11134.3  105.335
 24.9076  11030.5  104.874
 25.1056  10884  104.347
 25.3036  10724.4  103.37
 25.5016  10766.7  103.616
 25.6996  10651.4  102.645
 25.8976  10584.7  102.753
 26.0956  10638.2  103.031
 26.2936  10622.3  102.598
 26.4916  10745.7  103.078
 26.6896  10236.5  100.9
 26.8876  10313.9  101.136
 27.0856  10207.6  100.62
 27.2836  10135.5  100.362
 27.4816  9954.49  99.2376
 27.6796  9871.98  99.1938
 27.8776  9888.94  99.1417
 28.0756  9850.79  99.2258
 28.2736  9857.48  98.853
 28.4716  9722.68  98.2179
 28.6696  9720.1  98.0533
 28.8676  9559.91  97.5878
 29.0656  9331.09  96.3886
 29.2636  9412.57  96.53
 29.4616  9486.13  97.1607
 29.6596  9382.59  96.2018
 29.8576  9271.2  96.3035
 30.0556  9214.71  95.8942
 30.2536  9326.09  96.2633
 30.4516  9203.15  95.301
 30.6496  9215.01  95.0875
 30.8476  9123.12  95.0499
 31.0456  9098.45  94.884
 31.2436  9134.59  94.3464
 31.4416  8953.13  93.5745
 31.6396  8918.68  93.4375
 31.8376  8893.61  92.8606
 32.0356  8842.54  93.1538
 32.2336  8775.12  92.2007
 32.4316  8707.16  92.236
 32.6296  8684.84  91.894
 32.8276  8710.38  91.8593
 33.0256  8621.78  91.4819
 33.2236  8502.48  90.9891
 33.4216  8748.57  91.9935
 33.6196  8713.57  92.09
 33.8176  8544.85  91.3591
 34.0156  8438.61  90.4159
 34.2136  8477.36  90.6619
 34.4116  8310.4  89.9046
 34.6096  8249.5  89.4581
 34.8076  8218.74  89.687
 35.0056  8278.98  89.7135
 35.2036  8236.61  89.6797
 35.4016  8240.8  89.6385
 35.5996  8229.37  89.6148
 35.7976  8068.35  88.9963
 35.9956  8237.89  89.5808
 36.1936  8027.15  88.2964
 36.3916  7980.15  88.2101
 36.5896  8066.05  90.1073
 36.7876  8045.45  88.9404
 36.9856  7939.92  88.3826
 37.1836  8055.23  88.1317
 37.3816  7953.97  87.9386
 37.5796  7845.54  89.0256
 37.7776  7748.24  86.889
 37.9756  7783.39  86.9736
 38.1736  7893.31  87.7737
 38.3716  7858.76  87.8604
 38.5696  7708.9  87.3738
 38.7676  7561.31  86.0564
 38.9656  7628.04  86.0754
 39.1636  7665.65  86.5226
 39.3616  7699.17  86.6693
 39.5596  7589.48  86.8844
 39.7576  7652.56  86.6304
 39.9556  7693.28  86.5007
 40.1536  7750.25  87.0264
 40.3516  7771.86  87.2357
 40.5496  7756.48  87.114
 40.7476  7781.22  87.4689
 40.9456  7781.71  87.2198
 41.1436  7816.09  87.1444
 41.3416  7720.54  86.9347
 41.5396  7691.13  86.5783
 41.7376  7578.47  86.2073
 41.9356  7553.66  85.9265
 42.1336  7666.51  86.713
 42.3316  7530.92  86.133
 42.5296  7558.26  85.8135
 42.7276  7668.21  86.6743
 42.9256  7588.64  86.0952
 43.1236  7582.7  86.1711
 43.3216  7624.66  86.2674
 43.5196  7444.55  85.1985
 43.7176  7418.82  85.4383
 43.9156  7442.17  85.4777
 44.1136  7318.71  84.329
 44.3116  7401.26  84.8218
 44.5096  7342.97  84.7803
 44.7076  7277.11  84.3375
 44.9056  7262.84  84.133
 45.1036  7223.81  83.5447
 45.3016  7078.48  83.1875
 45.4996  7051.97  82.9708
 45.6976  7035.95  83.048
 45.8956  7131.07  83.4192
 46.0936  7228.66  83.7534
 46.2916  7019.41  82.7481
 46.4896  7186.38  83.7548
 46.6876  6981.52  83.2443
 46.8856  6905.04  82.1873
 47.0836  6869.42  82.1031
 47.2816  6847.44  81.8536
 47.4796  6925.88  82.4327
 47.6776  6743.32  82.2415
 47.8756  6790.6  81.7299
 48.0736  6873.49  82.6605
 48.2716  6732.9  81.6431
 48.4696  6796.78  81.6352
 48.6676  6733.15  81.828
 48.8656  6758.07  81.7094
 49.0636  6760.09  81.6698
 49.2616  6588.8  80.6676
 49.4596  6656.66  80.649
 49.6576  6676.19  80.9871
 49.8556  6505.18  79.9693
 50.0536  6697.59  81.5815
 50.2516  6615.19  81.1817
 50.4496  6489.99  80.099
 50.6476  6546.5  80.1394
 50.8456  6488.12  79.8712
 51.0436  6406.42  79.788
 51.2416  6317.97  78.9152
 51.4396  6228.57  78.7413
 51.6376  6347.68  79.3083
 51.8356  6338.67  78.9058
 52.0336  6172.19  78.364
 52.2316  6344.29  79.79
 52.4296  6204.83  78.6076
 52.6276  6209.73  78.7557
 52.8256  6328.77  79.0679
 53.0236  6087.71  78.163
 53.2216  6087.74  78.1742
 53.4196  6021.45  77.6934
 53.6176  6036  78.2539
 53.8156  6046.46  77.9983
 54.0136  6032.33  78.0819
 54.2116  6022.03  77.6881
 54.4096  6127.35  78.4039
 54.6076  6039.66  78.1924
 54.8056  5956.22  77.4438
 55.0036  5955.11  77.6964
 55.2016  6047.82  77.9013
 55.3996  6011.52  77.7082
 55.5976  5995.66  77.7941
 55.7956  5922.75  77.133
 55.9936  5977.57  77.6283
 56.1916  5955.42  77.5031
 56.3896  5970.93  77.591
 56.5876  5825.02  77.1743
 56.7856  5889.81  77.0928
 56.9836  5946.7  77.2601
 57.1816  5953.95  77.6732
 57.3796  5954.12  77.4496
 57.5776  5992.64  77.6553
 57.7756  5831.72  77.2277
 57.9736  5882.97  77.2501
 58.1716  5867.99  77.3834
 58.3696  5875.76  77.1805
 58.5676  5937.55  77.0803
 58.7656  5841.23  77.1056
 58.9636  6055.99  78.5453
 59.1616  5888.18  77.5644
 59.3596  5991.12  77.5212
 59.5576  6074.26  78.1175
 59.7556  6014.48  78.1495
 59.9536  6170.25  79.0529
 60.1516  5865.5  77.9124
 60.1996  0.0000000E+00  0.0000000E+00