File: docs/examples/XRD/IS17_D/Data/IS17_D/17_Db_f00055.xye
# /beamlines/bl04/projects/cycle2025-II/20250340211-lsimonelli/DATA/IS17_D/17_Db_f00055.xye : mythproc.py merge -s 0.006 -l 0.5 -f /beamlines/bl04/inhouse/ff/FlatField/ff_20Nov2024rod8mm60s_17keV.raw -b True -c true -o xye /beamlines/bl04/projects/cycle2025-II/20250340211-lsimonelli/DATA/IS17_D/17_Db_00055.dat
# IsMon = [6784432, 6784400, 6786146]  IsPos = [-1.4999, -2.4885, -3.4988]
# Wave = 0.4962  CalPath /beamlines/bl04/projects/cycle2025-II/20250340211-lsimonelli/DATA/Align/Si_Pos1_25keV_f00001.cal
# Date = 2025-09-24_09:00:11 Dt = 4.8000  Bin = 0.0060  <imon> = 6784993 +/- 816 (Min/Max) 6784400 / 6786146
# icurr 252.5782  mocoIn 1.7228E-05  mocoOut 0.8086  i15 7.10673e+06  imon 6.78499e+06  i7 4.6667  iEMpd_timer 4.8000  iEMpd_1 3.5162E-08  iEMpd_2 7.7534E-08  iEMpd_3 1.7376E-08  iEMpd_4 4.7307E-08  iEMhp_timer 4.8000  iEMhp_1 4.9347E-06  iEMhp_2 -2.4516E-08  iEMhp_3 -2.4010E-08  iEMhp_4 -2.0828E-08
#      9776
 1.7416  70814.2  266.197
 1.9396  49078.6  221.898
 2.1376  36039  190.143
 2.3356  32051.7  178.939
 2.5336  30265.4  174.494
 2.7316  27606.9  166.772
 2.9296  26450.8  163.405
 3.1276  26025.7  161.615
 3.3256  25088.6  158.34
 3.5236  26798.1  163.588
 3.7216  24599.4  157.851
 3.9196  24070.9  155.353
 4.1176  23992.4  154.878
 4.3156  24815.8  157.685
 4.5136  27287.8  164.318
 4.7116  28369.8  168.689
 4.9096  27442  165.34
 5.1076  27304.4  165.515
 5.3056  27276  165.148
 5.5036  27172.8  164.83
 5.7016  27498.3  165.691
 5.8996  28121.3  166.781
 6.0976  29001  170.794
 6.2956  29092.1  170.407
 6.4936  29979.5  172.167
 6.6916  30152.1  173.659
 6.8896  30828.7  175.442
 7.0876  32108.6  179.804
 7.2856  31940.4  178.377
 7.4836  32347.8  178.848
 7.6816  33059.3  181.32
 7.8796  33938.5  183.72
 8.0776  35598.8  189.162
 8.2756  37085.2  191.675
 8.4736  37788.2  193.297
 8.6716  37193.7  192.404
 8.8696  37862.6  194.624
 9.0676  37183.2  192.195
 9.2656  36012.4  189.841
 9.4636  35251.6  186.266
 9.6616  34337.4  184.575
 9.8596  33745.1  182.432
 10.0576  31442.9  176.766
 10.2556  30735.2  175.22
 10.4536  29676.2  171.761
 10.6516  28838  169.538
 10.8496  27793.5  165.842
 11.0476  26803.8  162.834
 11.2456  26040.7  161.083
 11.4436  26682.6  162.209
 11.6416  26820.4  162.983
 11.8396  25132  157.978
 12.0376  24615.9  155.971
 12.2356  24271.1  155.336
 12.4336  24060.4  154.175
 12.6316  23987.3  154.209
 12.8296  24169.3  154.399
 13.0276  24464.6  155.551
 13.2256  24977.5  157.532
 13.4236  24463.6  155.686
 13.6216  24913.8  157.108
 13.8196  27127.9  163.414
 14.0176  24114.6  154.641
 14.2156  23650.7  152.174
 14.4136  22417.5  149.535
 14.6116  22113.5  147.716
 14.8096  21534.3  145.75
 15.0076  20396.9  145.756
 15.2056  19251.7  137.43
 15.4036  18683  136.212
 15.6016  18488.1  134.584
 15.7996  17743.4  132.116
 15.9976  17442.9  133.897
 16.1956  17201.9  130.841
 16.3936  16915.8  128.917
 16.5916  16563.2  128.222
 16.7896  16539.2  128.187
 16.9876  16457  129.34
 17.1856  16338.4  127.233
 17.3836  15919.3  125.502
 17.5816  15436.2  124.056
 17.7796  15120.7  122.718
 17.9776  14716.6  121.839
 18.1756  14793.7  120.905
 18.3736  14478.7  120.082
 18.5716  14415  119.581
 18.7696  14485  119.431
 18.9676  14331.3  118.598
 19.1656  13980.9  117.723
 19.3636  13982  117.922
 19.5616  13856.6  117.554
 19.7596  14200.3  118.407
 19.9576  14505.1  119.714
 20.1556  14547.2  120.416
 20.3536  13968.1  117.374
 20.5516  13559  116.095
 20.7496  13239.8  114.66
 20.9476  13317.3  114.75
 21.1456  12967.2  113.554
 21.3436  12943.7  113.404
 21.5416  12982.4  113.585
 21.7396  12730.8  112.319
 21.9376  12726.7  112.074
 22.1356  12752.9  112.312
 22.3336  12535.4  111.617
 22.5316  12585.2  111.946
 22.7296  12517.4  111.015
 22.9276  12430.3  111.294
 23.1256  12607.8  111.562
 23.3236  12688.7  112.491
 23.5216  12654.1  111.975
 23.7196  12402  110.801
 23.9176  12535.2  111.15
 24.1156  12423  111.114
 24.3136  11947.8  109.774
 24.5116  12086.6  109.916
 24.7096  11718.3  108.057
 24.9076  11643.5  107.742
 25.1056  11310.3  106.383
 25.3036  11227.8  105.772
 25.5016  11150.3  105.445
 25.6996  11135.2  104.952
 25.8976  11150.1  105.455
 26.0956  10919.6  104.377
 26.2936  10927.7  104.073
 26.4916  11232.9  105.376
 26.6896  10915.1  104.179
 26.8876  10741.4  103.2
 27.0856  10662.1  102.837
 27.2836  10424.9  101.623
 27.4816  10442  101.637
 27.6796  10233.2  100.982
 27.8776  10501  102.148
 28.0756  10147.9  100.707
 28.2736  10248.4  100.779
 28.4716  9979.26  99.5091
 28.6696  10119.3  100.044
 28.8676  9921.19  99.414
 29.0656  9751.24  98.5393
 29.2636  9986.22  99.4236
 29.4616  9433.17  96.893
 29.6596  9519.94  96.9083
 29.8576  9367.81  96.81
 30.0556  9508.43  97.4071
 30.2536  9469.09  97.0036
 30.4516  9563.05  97.118
 30.6496  9598.14  97.0289
 30.8476  9694.66  97.9676
 31.0456  9552.19  97.2081
 31.2436  9574.58  96.5783
 31.4416  9386.72  95.8172
 31.6396  9465.54  96.2618
 31.8376  9573.24  96.3318
 32.0356  9307.88  95.5517
 32.2336  9210.67  94.4602
 32.4316  9127.11  94.4364
 32.6296  9109.31  94.1053
 32.8276  9077.45  93.7987
 33.0256  8910.9  92.997
 33.2236  8984  93.5224
 33.4216  8887.65  92.7063
 33.6196  8884.31  92.9901
 33.8176  8906.84  93.271
 34.0156  8727.42  91.953
 34.2136  8760.8  92.1521
 34.4116  8732.71  92.1684
 34.6096  8716.66  91.9607
 34.8076  8460.85  91.0171
 35.0056  8551.01  91.1674
 35.2036  8708.79  92.2383
 35.4016  8485.42  90.9519
 35.5996  8446.33  90.7862
 35.7976  8434.75  90.9933
 35.9956  8668.82  91.8862
 36.1936  8452.15  90.5796
 36.3916  8322.43  90.0841
 36.5896  8410.61  92.0266
 36.7876  8220.69  89.9079
 36.9856  8080  89.1586
 37.1836  8140.78  88.6029
 37.3816  8126.84  88.8891
 37.5796  8264.49  91.381
 37.7776  8171.72  89.227
 37.9756  8164.41  89.0689
 38.1736  8192.83  89.4207
 38.3716  8008.49  88.6699
 38.5696  8121.08  89.6837
 38.7676  8015.17  88.6044
 38.9656  8022.3  88.2627
 39.1636  8034.75  88.5816
 39.3616  8068.56  88.7324
 39.5596  7822.34  88.1962
 39.7576  7866.82  87.8368
 39.9556  8073.22  88.6133
 40.1536  8084.89  88.8771
 40.3516  8036.76  88.6307
 40.5496  8111.56  89.07
 40.7476  8121.43  89.3434
 40.9456  8102.61  89.0038
 41.1436  8092.28  88.6646
 41.3416  7861.73  87.7275
 41.5396  7917.74  87.8484
 41.7376  7873.99  87.8642
 41.9356  7875.92  87.7341
 42.1336  8034.54  88.7601
 42.3316  7956.93  88.5298
 42.5296  7966.83  88.103
 42.7276  7910.29  88.0343
 42.9256  7911.78  87.9101
 43.1236  7907.3  87.9844
 43.3216  7935.15  87.9958
 43.5196  7822.58  87.3199
 43.7176  7840.05  87.8235
 43.9156  7481.74  85.7095
 44.1136  7450.31  85.0898
 44.3116  7704.77  86.5405
 44.5096  7702.93  86.8462
 44.7076  7600.93  86.1968
 44.9056  7665.36  86.4276
 45.1036  7795.63  86.7745
 45.3016  7621.54  86.304
 45.4996  7584.21  86.0359
 45.6976  7577.14  86.1732
 45.8956  7594.44  86.0874
 46.0936  7755.5  87.0005
 46.2916  7579.89  85.9828
 46.4896  7557.66  85.8785
 46.6876  7515.5  86.3765
 46.8856  7485.48  85.4501
 47.0836  7583.29  86.2665
 47.2816  7408.94  85.1472
 47.4796  7498.03  85.7577
 47.6776  7346.04  85.8489
 47.8756  7506.02  85.9327
 48.0736  7496.59  86.3431
 48.2716  7325.8  85.1693
 48.4696  7493.56  85.7196
 48.6676  7346.75  85.4656
 48.8656  7504.27  86.1012
 49.0636  7539.88  86.2612
 49.2616  7303.51  84.9313
 49.4596  7539.77  85.835
 49.6576  7321.5  84.8132
 49.8556  7424.34  85.4328
 50.0536  7338.16  85.3845
 50.2516  7302.48  85.2974
 50.4496  7265.3  84.7525
 50.6476  7379.19  85.0803
 50.8456  7440.32  85.5192
 51.0436  7220.37  84.7068
 51.2416  7087.06  83.588
 51.4396  6941.21  83.1314
 51.6376  7041.16  83.5478
 51.8356  7031.92  83.1063
 52.0336  7055.39  83.7525
 52.2316  7034.01  84.0055
 52.4296  7063.08  83.8721
 52.6276  6915.31  83.0968
 52.8256  7120.66  83.8722
 53.0236  7139.96  84.6466
 53.2216  7035.27  84.0652
 53.4196  7055.92  84.0967
 53.6176  7070.79  84.6974
 53.8156  6919.57  83.4475
 54.0136  6708.56  82.3331
 54.2116  6997.99  83.7206
 54.4096  6678.78  81.8608
 54.6076  6663.45  82.1008
 54.8056  6664.86  81.8839
 55.0036  6590.61  81.8517
 55.2016  6826.72  82.7851
 55.3996  6442.02  80.4279
 55.5976  6508.31  81.034
 55.7956  6585.82  81.3169
 55.9936  6619.99  81.647
 56.1916  6525.07  81.1172
 56.3896  6340.25  79.9289
 56.5876  6451.24  81.1936
 56.7856  6344.17  80.018
 56.9836  6419.24  80.2533
 57.1816  6508.83  81.1708
 57.3796  6207.47  79.0891
 57.5776  6358.99  79.9357
 57.7756  6329.86  80.4429
 57.9736  6225.98  79.4302
 58.1716  6284.35  80.0791
 58.3696  6008.83  78.0639
 58.5676  6114.71  78.2164
 58.7656  6000.96  78.1611
 58.9636  6070.69  78.6446
 59.1616  6092.44  78.9164
 59.3596  6113.57  78.3033
 59.5576  6265.14  79.3276
 59.7556  5844.9  77.0323
 59.9536  6072.28  78.415
 60.1516  5935.82  78.3704
 60.1996  0.0000000E+00  0.0000000E+00