File: docs/examples/XRD/IS17_D/Data/IS17_D/17_Da_f00038.xye
# /beamlines/bl04/projects/cycle2025-II/20250340211-lsimonelli/DATA/IS17_D/17_Da_f00038.xye : mythproc.py merge -s 0.006 -l 0.5 -f /beamlines/bl04/inhouse/ff/FlatField/ff_20Nov2024rod8mm60s_17keV.raw -b True -c true -o xye /beamlines/bl04/projects/cycle2025-II/20250340211-lsimonelli/DATA/IS17_D/17_Da_00038.dat
# IsMon = [6765560, 6763354, 6767707]  IsPos = [-1.5000, -2.4885, -3.4989]
# Wave = 0.4962  CalPath /beamlines/bl04/projects/cycle2025-II/20250340211-lsimonelli/DATA/Align/Si_Pos1_25keV_f00001.cal
# Date = 2025-09-24_04:08:41 Dt = 4.8000  Bin = 0.0060  <imon> = 6765540 +/- 1777 (Min/Max) 6763354 / 6767707
# icurr 250.5821  mocoIn 1.7094E-05  mocoOut 0.8025  i15 7.07967e+06  imon 6.76554e+06  i7 3.6667  iEMpd_timer 4.8000  iEMpd_1 3.4861E-08  iEMpd_2 7.7061E-08  iEMpd_3 1.6264E-08  iEMpd_4 4.8820E-08  iEMhp_timer 4.8000  iEMhp_1 4.8965E-06  iEMhp_2 -2.5102E-08  iEMhp_3 -2.3680E-08  iEMhp_4 -2.2372E-08
#      9776
 1.7416  70322.4  265.259
 1.9396  46327.6  215.575
 2.1376  32605.7  180.851
 2.3356  29140.8  170.613
 2.5336  27423.8  166.093
 2.7316  25749  161.066
 2.9296  24660.3  157.789
 3.1276  23807.1  154.588
 3.3256  23495.1  153.246
 3.5236  25509.7  159.628
 3.7216  23127.2  153.069
 3.9196  22501  150.225
 4.1176  22536.9  150.109
 4.3156  23723.5  154.17
 4.5136  26090.6  160.681
 4.7116  27143.9  165.015
 4.9096  26330.9  161.969
 5.1076  26054.4  161.683
 5.3056  26563.8  162.985
 5.5036  26134  161.649
 5.7016  26587.8  162.928
 5.8996  27255  164.175
 6.0976  27754.7  167.102
 6.2956  28321.3  168.14
 6.4936  29074.9  169.558
 6.6916  29238.1  171.025
 6.8896  30026.2  173.173
 7.0876  31242.6  177.287
 7.2856  30923.2  175.529
 7.4836  31291.2  175.913
 7.6816  31962.5  178.317
 7.8796  33389.5  182.251
 8.0776  34579.6  186.435
 8.2756  36383.4  189.847
 8.4736  36980.2  191.215
 8.6716  36219.5  189.873
 8.8696  35865.4  189.388
 9.0676  35236.8  187.095
 9.2656  34318.7  185.313
 9.4636  33696  182.063
 9.6616  32837.2  180.49
 9.8596  31511.5  176.314
 10.0576  29986.7  172.657
 10.2556  28696.6  169.317
 10.4536  27929.6  166.652
 10.6516  27159.4  164.532
 10.8496  26459.8  161.802
 11.0476  25619.3  159.202
 11.2456  24920.4  157.583
 11.4436  24875.9  156.626
 11.6416  26095.6  160.783
 11.8396  23746.4  153.571
 12.0376  23757.4  153.234
 12.2356  23091.4  151.514
 12.4336  23221.3  151.462
 12.6316  22772.7  150.244
 12.8296  23285.5  151.58
 13.0276  23717.4  153.154
 13.2256  23928  154.191
 13.4236  23805.8  153.572
 13.6216  23598.6  152.919
 13.8196  23638.8  152.819
 14.0176  23002.1  150.945
 14.2156  22638.1  148.894
 14.4136  21732  147.228
 14.6116  21317.7  145.044
 14.8096  20821.1  143.326
 15.0076  19690.1  143.15
 15.2056  19242.2  137.4
 15.4036  18273.2  134.708
 15.6016  18004.6  132.808
 15.7996  17671.8  131.85
 15.9976  17012.4  132.881
 16.1956  16563.5  128.406
 16.3936  15890.7  124.966
 16.5916  15628.1  124.548
 16.7896  15804.9  125.298
 16.9876  15670.8  126.227
 17.1856  15465.4  123.8
 17.3836  14947  121.607
 17.5816  14713.4  121.127
 17.7796  14323  119.445
 17.9776  14064.3  119.119
 18.1756  14267.6  118.7
 18.3736  13969.2  117.971
 18.5716  13756.5  116.822
 18.7696  13821.1  116.678
 18.9676  13603.4  115.56
 19.1656  13488.3  115.621
 19.3636  13438.2  115.613
 19.5616  13143.3  114.495
 19.7596  13397.5  115.001
 19.9576  13716.3  116.429
 20.1556  14436.2  119.973
 20.3536  13358.3  114.791
 20.5516  13230.9  114.686
 20.7496  12760.7  112.484
 20.9476  12648.7  111.831
 21.1456  12773.6  112.709
 21.3436  12621  111.984
 21.5416  12394.8  110.973
 21.7396  12290.4  110.355
 21.9376  12388.3  110.554
 22.1356  12264.2  110.283
 22.3336  12308.9  110.602
 22.5316  12377.9  111.021
 22.7296  12332.8  110.19
 22.9276  12092.1  109.77
 23.1256  12393.2  110.604
 23.3236  12331.4  110.871
 23.5216  12339.7  110.567
 23.7196  12084.5  109.581
 23.9176  12014.1  108.804
 24.1156  11923.3  108.862
 24.3136  11469.7  107.563
 24.5116  11702.3  108.181
 24.7096  11256.6  105.921
 24.9076  11046.8  104.948
 25.1056  10868.9  104.292
 25.3036  10784  103.669
 25.5016  10802  103.785
 25.6996  10731.3  103.03
 25.8976  10569.5  102.674
 26.0956  10570.3  102.7
 26.2936  10591.9  102.465
 26.4916  10682.2  102.778
 26.6896  10451  101.95
 26.8876  10231.6  100.729
 27.0856  10351.6  101.33
 27.2836  10088.6  99.9666
 27.4816  9963.69  99.2792
 27.6796  9797.1  98.8186
 27.8776  9826.9  98.8268
 28.0756  9857.76  99.2651
 28.2736  9729.2  98.2072
 28.4716  9643.61  97.8228
 28.6696  9708.64  98.0008
 28.8676  9576.32  97.6719
 29.0656  9444.73  96.978
 29.2636  9429.44  96.613
 29.4616  9440.7  96.9355
 29.6596  9442.2  96.5136
 29.8576  9276.61  96.3386
 30.0556  9234.43  95.9928
 30.2536  9408.26  96.6929
 30.4516  9123.39  94.8716
 30.6496  9247.5  95.2447
 30.8476  9119.94  95.0203
 31.0456  9131.31  95.0422
 31.2436  8985.9  93.5662
 31.4416  8852.16  93.0493
 31.6396  8937.13  93.5449
 31.8376  8887.7  92.8393
 32.0356  8699.69  92.3971
 32.2336  8767.55  92.1605
 32.4316  8726.76  92.344
 32.6296  8783.18  92.4139
 32.8276  8722.57  91.9385
 33.0256  8591.55  91.3166
 33.2236  8581.73  91.4033
 33.4216  8719.04  91.8344
 33.6196  8571.69  91.344
 33.8176  8681.88  92.0861
 34.0156  8542.78  90.97
 34.2136  8505.71  90.8082
 34.4116  8353.83  90.144
 34.6096  8496.53  90.7921
 34.8076  8155.12  89.3505
 35.0056  8254.53  89.5865
 35.2036  8354  90.3356
 35.4016  8339.49  90.1777
 35.5996  8232.44  89.6282
 35.7976  8191.71  89.6837
 35.9956  8128.77  88.9896
 36.1936  8194.2  89.2155
 36.3916  8029.36  88.4837
 36.5896  8031.36  89.9046
 36.7876  8078.37  89.1261
 36.9856  7914.55  88.2467
 37.1836  8132.16  88.5569
 37.3816  7969.29  88.0217
 37.5796  7845.55  89.0268
 37.7776  7696.39  86.5879
 37.9756  7760.5  86.8328
 38.1736  7928.26  87.9586
 38.3716  7792.54  87.4753
 38.5696  7808.03  87.9425
 38.7676  7448.31  85.4154
 38.9656  7659.55  86.2634
 39.1636  7652.94  86.4522
 39.3616  7662.26  86.4734
 39.5596  7495.5  86.3398
 39.7576  7648.04  86.6036
 39.9556  7699.5  86.5428
 40.1536  7766.93  87.1149
 40.3516  7771.7  87.1626
 40.5496  7808.94  87.4162
 40.7476  7778.13  87.4542
 40.9456  7868.44  87.7037
 41.1436  7806.13  87.0868
 41.3416  7669.22  86.647
 41.5396  7721.85  86.7581
 41.7376  7677.61  86.7659
 41.9356  7624.65  86.3305
 42.1336  7586.63  86.258
 42.3316  7600.31  86.5335
 42.5296  7652.75  86.3515
 42.7276  7713.48  86.9321
 42.9256  7543.59  85.8408
 43.1236  7480.41  85.5859
 43.3216  7576.99  85.9939
 43.5196  7422.66  85.0789
 43.7176  7532.7  86.0902
 43.9156  7441.62  85.4829
 44.1136  7291.3  84.1785
 44.3116  7377.52  84.6804
 44.5096  7287.06  84.4693
 44.7076  7380.85  84.9432
 44.9056  7244.93  84.0186
 45.1036  7238.68  83.6161
 45.3016  7082.46  83.1971
 45.4996  7174.17  83.673
 45.6976  7138.52  83.6373
 45.8956  7141.89  83.4881
 46.0936  7153.03  83.3209
 46.2916  7190.51  83.7595
 46.4896  7236.21  84.0546
 46.6876  7039.55  83.5954
 46.8856  6973.94  82.4778
 47.0836  6941.56  82.5357
 47.2816  6890.43  82.113
 47.4796  6975.07  82.7169
 47.6776  6863.77  82.9771
 47.8756  6913.55  82.4662
 48.0736  6833.1  82.4284
 48.2716  6716.97  81.5483
 48.4696  6742.43  81.3147
 48.6676  6809.5  82.2773
 48.8656  6727.1  81.5282
 49.0636  6792.19  81.8643
 49.2616  6645.31  81.0112
 49.4596  6704.43  80.9471
 49.6576  6545.52  80.1923
 49.8556  6629.46  80.7266
 50.0536  6675.16  81.4424
 50.2516  6502.54  80.4886
 50.4496  6538.75  80.4032
 50.6476  6639.45  80.7096
 50.8456  6486.09  79.8523
 51.0436  6430.5  79.939
 51.2416  6359.35  79.181
 51.4396  6164.11  78.3417
 51.6376  6251.17  78.7268
 51.8356  6419.95  79.4178
 52.0336  6293.51  79.1169
 52.2316  6269.77  79.304
 52.4296  6285.87  79.1125
 52.6276  6193.99  78.6374
 52.8256  6325.62  79.0369
 53.0236  6132.23  78.4542
 53.2216  6120.54  78.3939
 53.4196  6115.86  78.306
 53.6176  6134.12  78.8923
 53.8156  6164.77  78.7685
 54.0136  6048.55  78.1835
 54.2116  6041.4  77.8127
 54.4096  6059.35  77.9828
 54.6076  6007.32  77.9836
 54.8056  6030.24  77.9202
 55.0036  6035.93  78.2176
 55.2016  6088.02  78.239
 55.3996  6045.43  77.9313
 55.5976  5957.86  77.5482
 55.7956  6016.17  77.7322
 55.9936  6020.15  77.9024
 56.1916  5923.21  77.2859
 56.3896  5997.08  77.7652
 56.5876  5979.49  78.1921
 56.7856  5921.02  77.3042
 56.9836  5879.8  76.8213
 57.1816  5945.28  77.5218
 57.3796  5887.93  77.0497
 57.5776  5936.91  77.2927
 57.7756  5948.44  77.9958
 57.9736  5912.86  77.4419
 58.1716  5912.71  77.6795
 58.3696  5882.97  77.2435
 58.5676  5863.31  76.6073
 58.7656  5947.57  77.8108
 58.9636  6067.61  78.6262
 59.1616  5941.67  77.9258
 59.3596  6030.46  77.7639
 59.5576  6007.46  77.6733
 59.7556  6030.1  78.2373
 59.9536  6158.23  78.9621
 60.1516  5943.62  78.4159
 60.1996  5904.82  81.2697