File: docs/examples/XRD/IS17_D/Data/IS17_D/17_Da_f00012.xye
# /beamlines/bl04/projects/cycle2025-II/20250340211-lsimonelli/DATA/IS17_D/17_Da_f00012.xye : mythproc.py merge -s 0.006 -l 0.5 -f /beamlines/bl04/inhouse/ff/FlatField/ff_20Nov2024rod8mm60s_17keV.raw -b True -c true -o xye /beamlines/bl04/projects/cycle2025-II/20250340211-lsimonelli/DATA/IS17_D/17_Da_00012.dat
# IsMon = [6747368, 6743040, 6751474]  IsPos = [-1.5000, -2.4885, -3.4986]
# Wave = 0.4962  CalPath /beamlines/bl04/projects/cycle2025-II/20250340211-lsimonelli/DATA/Align/Si_Pos1_25keV_f00001.cal
# Date = 2025-09-23_20:53:11 Dt = 4.8000  Bin = 0.0060  <imon> = 6747294 +/- 3444 (Min/Max) 6743040 / 6751474
# icurr 249.4061  mocoIn 1.7020E-05  mocoOut 0.7983  i15 7.0585e+06  imon 6.74729e+06  i7 5.0000  iEMpd_timer 4.8000  iEMpd_1 3.5374E-08  iEMpd_2 7.9415E-08  iEMpd_3 1.7656E-08  iEMpd_4 4.8714E-08  iEMhp_timer 4.8000  iEMhp_1 4.8733E-06  iEMhp_2 -2.4778E-08  iEMhp_3 -2.3100E-08  iEMhp_4 -2.1397E-08
#      9776
 1.7416  67323.6  259.541
 1.9396  43367.2  208.574
 2.1376  30265.6  174.24
 2.3356  27103.4  164.54
 2.5336  29156.2  171.258
 2.7316  23908.1  155.206
 2.9296  22488.5  150.692
 3.1276  22022.8  148.679
 3.3256  21829.7  147.729
 3.5236  23656.7  153.732
 3.7216  21600  147.929
 3.9196  21654.5  147.365
 4.1176  20897.3  144.543
 4.3156  22335.2  149.586
 4.5136  25477.3  158.787
 4.7116  26155.9  161.986
 4.9096  25492.8  159.369
 5.1076  24547.4  156.941
 5.3056  25123.7  158.411
 5.5036  24520.5  156.503
 5.7016  24894.3  157.655
 5.8996  25499.5  158.808
 6.0976  26197.1  162.346
 6.2956  26802.4  163.572
 6.4936  27642.9  165.328
 6.6916  27994  167.348
 6.8896  29016.2  170.233
 7.0876  29875.7  173.366
 7.2856  29570.4  171.644
 7.4836  30477.3  173.605
 7.6816  31125.4  175.967
 7.8796  32355.7  179.407
 8.0776  36678  192.011
 8.2756  36965.9  191.354
 8.4736  36425  189.772
 8.6716  35865.7  188.955
 8.8696  36803.6  191.832
 9.0676  36016.3  189.14
 9.2656  33583.9  183.31
 9.4636  33149.1  180.564
 9.6616  32415.7  179.31
 9.8596  31149.9  175.313
 10.0576  29436.9  171.074
 10.2556  28568.8  168.948
 10.4536  33024.4  181.23
 10.6516  34001.9  184.104
 10.8496  26296.2  161.299
 11.0476  26441.2  161.744
 11.2456  29184.2  170.539
 11.4436  25540.3  158.701
 11.6416  24619.9  156.168
 11.8396  23725.6  153.502
 12.0376  23228.2  151.519
 12.2356  24765  156.908
 12.4336  23813.2  153.384
 12.6316  22261.7  148.553
 12.8296  23275.5  151.547
 13.0276  23579.5  152.713
 13.2256  23161.8  151.706
 13.4236  23330.7  152.028
 13.6216  23281.2  151.883
 13.8196  24241.8  154.76
 14.0176  23076  151.272
 14.2156  22558.6  148.624
 14.4136  21154.8  145.255
 14.6116  20980.2  143.889
 14.8096  20206.3  141.19
 15.0076  19435.8  142.206
 15.2056  18690.4  135.415
 15.4036  18004.3  133.714
 15.6016  17729.3  131.794
 15.7996  17452.8  131.023
 15.9976  16501.2  130.265
 16.1956  16091.9  126.556
 16.3936  15789.3  124.558
 16.5916  15622.4  124.516
 16.7896  15443.7  123.859
 16.9876  15379.1  125.053
 17.1856  15442.1  123.72
 17.3836  14350.1  119.155
 17.5816  14487.6  120.205
 17.7796  14573.2  120.493
 17.9776  14554  121.168
 18.1756  15961.4  125.568
 18.3736  15571.6  124.558
 18.5716  13919.5  117.508
 18.7696  13928.7  117.126
 18.9676  13453.2  114.922
 19.1656  13369  115.102
 19.3636  13423.7  115.552
 19.5616  13315.5  115.241
 19.7596  13313.3  114.651
 19.9576  13950  117.412
 20.1556  13131.7  114.423
 20.3536  12848.5  112.581
 20.5516  12797.6  112.787
 20.7496  12435.2  111.038
 20.9476  13002.9  113.387
 21.1456  13091.5  114.102
 21.3436  12292.7  110.518
 21.5416  12406  111.029
 21.7396  12111.8  109.553
 21.9376  12237.3  109.887
 22.1356  12503.4  111.227
 22.3336  12409  111.051
 22.5316  12309.8  110.709
 22.7296  12068.5  108.993
 22.9276  11850.7  108.67
 23.1256  12619.3  111.602
 23.3236  11786.3  108.395
 23.5216  11926.3  108.692
 23.7196  11884.4  108.655
 23.9176  11809.2  107.874
 24.1156  11642.7  107.565
 24.3136  11450.9  107.485
 24.5116  11490.5  107.206
 24.7096  11412  106.658
 24.9076  11047.8  104.961
 25.1056  11053.6  105.185
 25.3036  10683.3  103.185
 25.5016  10828.9  103.912
 25.6996  10693.6  102.844
 25.8976  10750.5  103.557
 26.0956  10874.4  104.161
 26.2936  10702.9  103.003
 26.4916  10656.9  102.653
 26.6896  10355.1  101.48
 26.8876  10098.7  100.073
 27.0856  10178  100.489
 27.2836  10095.1  100.152
 27.4816  10227.5  100.588
 27.6796  9876.25  99.2165
 27.8776  10182.7  100.6
 28.0756  9890.04  99.4261
 28.2736  9960.92  99.3685
 28.4716  9665.56  97.933
 28.6696  9662.71  97.7664
 28.8676  9496.95  97.2671
 29.0656  9389.64  96.6945
 29.2636  9345.56  96.1806
 29.4616  9362.47  96.5309
 29.6596  9273.67  95.6477
 29.8576  9217  96.0286
 30.0556  9397.52  96.8239
 30.2536  9342.5  96.3541
 30.4516  9214.5  95.337
 30.6496  9267.79  95.3394
 30.8476  8931.07  94.0235
 31.0456  9009.32  94.3959
 31.2436  9005.9  93.6621
 31.4416  8839.66  92.9917
 31.6396  9258.29  95.2184
 31.8376  9022.46  93.5486
 32.0356  8858.97  93.249
 32.2336  8712.08  91.8749
 32.4316  8796.52  92.7176
 32.6296  8672.69  91.8293
 32.8276  8688.73  91.7633
 33.0256  8592.26  91.3183
 33.2236  8562.3  91.3026
 33.4216  8661.51  91.5238
 33.6196  8489.96  90.9116
 33.8176  8564.58  91.467
 34.0156  8382.15  90.1111
 34.2136  8331.87  89.8755
 34.4116  8340.82  90.0759
 34.6096  8416.08  90.3522
 34.8076  8288.05  90.0715
 35.0056  8320.39  89.9363
 35.2036  8336.59  90.2324
 35.4016  8191.04  89.3679
 35.5996  8168.35  89.2786
 35.7976  8033.36  88.8065
 35.9956  8197.89  89.3613
 36.1936  8113.69  88.778
 36.3916  7984.57  88.2378
 36.5896  8288.13  91.3364
 36.7876  8080.24  89.1372
 36.9856  7972.55  88.5705
 37.1836  7923.61  87.4156
 37.3816  8003.38  88.2029
 37.5796  7840.47  88.9988
 37.7776  7871.88  87.5655
 37.9756  7815.96  87.14
 38.1736  8087.78  88.8308
 38.3716  7960.24  88.4044
 38.5696  7666.03  87.1327
 38.7676  7536.33  85.9275
 38.9656  7640.1  86.1603
 39.1636  7586.57  86.0872
 39.3616  7784.27  87.1662
 39.5596  7540.45  86.6046
 39.7576  7578.8  86.2065
 39.9556  7611.31  86.0433
 40.1536  7779.93  87.1837
 40.3516  7721.44  86.9548
 40.5496  7744.38  87.0532
 40.7476  7757.22  87.3359
 40.9456  7725.84  86.9068
 41.1436  7727.06  86.6424
 41.3416  7707.53  86.8636
 41.5396  7638.66  86.2858
 41.7376  7742.18  87.1279
 41.9356  7621.89  86.3127
 42.1336  7636.07  86.5355
 42.3316  7607.89  86.5702
 42.5296  7534.07  85.6788
 42.7276  7620.9  86.4073
 42.9256  7481.61  85.4894
 43.1236  7533.01  85.8882
 43.3216  7555.68  85.8736
 43.5196  7398.95  84.9413
 43.7176  7429.6  85.501
 43.9156  7404.45  85.2714
 44.1136  7292.24  84.1844
 44.3116  7320  84.3503
 44.5096  7295.82  84.5214
 44.7076  7287.98  84.4075
 44.9056  7225.9  83.9011
 45.1036  7309.72  84.0208
 45.3016  7154.77  83.6125
 45.4996  7187.88  83.7471
 45.6976  7013.89  82.8932
 45.8956  7189.39  83.7748
 46.0936  7216.16  83.693
 46.2916  7142.21  83.474
 46.4896  7140.55  83.5085
 46.6876  7017.39  83.4702
 46.8856  6896.93  82.1347
 47.0836  6947.91  82.5733
 47.2816  6782.98  81.4715
 47.4796  6850.92  81.98
 47.6776  6795.25  82.5571
 47.8756  6827.77  81.9584
 48.0736  6894.07  82.7815
 48.2716  6688.02  81.3768
 48.4696  6832.13  81.8479
 48.6676  6851.53  82.5366
 48.8656  6809.87  82.0245
 49.0636  6787.21  81.8323
 49.2616  6582.09  80.6252
 49.4596  6712.04  80.9863
 49.6576  6628.9  80.7109
 49.8556  6633.82  80.7547
 50.0536  6596.49  80.961
 50.2516  6515.99  80.5686
 50.4496  6498.5  80.1599
 50.6476  6518.03  79.967
 50.8456  6548.76  80.2413
 51.0436  6401.95  79.7657
 51.2416  6461.49  79.8034
 51.4396  6237.55  78.7993
 51.6376  6269.6  78.8454
 51.8356  6295.8  78.6545
 52.0336  6239.25  78.7692
 52.2316  6270.4  79.3064
 52.4296  6263.88  78.9577
 52.6276  6233.39  78.8773
 52.8256  6294.94  78.8364
 53.0236  6110.85  78.3241
 53.2216  6133.04  78.4821
 53.4196  6138.04  78.4588
 53.6176  6028.69  78.2193
 53.8156  5978.77  77.5792
 54.0136  6054.87  78.223
 54.2116  6036.21  77.7793
 54.4096  6153.26  78.5855
 54.6076  6023.64  78.0889
 54.8056  5974.37  77.5604
 55.0036  6001.98  77.9956
 55.2016  5952.84  77.2897
 55.3996  5967.45  77.425
 55.5976  5900.98  77.1734
 55.7956  5951.44  77.3235
 55.9936  5884.41  77.0174
 56.1916  6014.6  77.8881
 56.3896  5962.5  77.5405
 56.5876  5975.83  78.1682
 56.7856  5975.01  77.6537
 56.9836  5790.04  76.2215
 57.1816  5984.67  77.8723
 57.3796  5937.7  77.342
 57.5776  5982.88  77.5991
 57.7756  5867.43  77.4679
 57.9736  5836.32  76.9448
 58.1716  6020.4  78.3816
 58.3696  5890.24  77.2949
 58.5676  5922.96  76.9923
 58.7656  5940.13  77.7662
 58.9636  6024.61  78.3441
 59.1616  5881.53  77.5278
 59.3596  5968.87  77.354
 59.5576  5897.23  76.9458
 59.7556  5996.8  78.0093
 59.9536  5909.69  77.3407
 60.1516  5955.37  78.4816
 60.1996  0.0000000E+00  0.0000000E+00