File: docs/examples/XRD/IS17_D/Data/IS17_D/17_Da_f00120.xye
# /beamlines/bl04/projects/cycle2025-II/20250340211-lsimonelli/DATA/IS17_D/17_Da_f00120.xye : mythproc.py merge -s 0.006 -l 0.5 -f /beamlines/bl04/inhouse/ff/FlatField/ff_20Nov2024rod8mm60s_17keV.raw -b True -c true -o xye /beamlines/bl04/projects/cycle2025-II/20250340211-lsimonelli/DATA/IS17_D/17_Da_00120.dat
# IsMon = [6783007, 6785912, 6784008]  IsPos = [-1.4999, -2.4884, -3.4988]
# Wave = 0.4962  CalPath /beamlines/bl04/projects/cycle2025-II/20250340211-lsimonelli/DATA/Align/Si_Pos1_25keV_f00001.cal
# Date = 2025-09-25_02:59:59 Dt = 4.8000  Bin = 0.0060  <imon> = 6784309 +/- 1205 (Min/Max) 6783007 / 6785912
# icurr 252.5157  mocoIn 1.7223E-05  mocoOut 0.8076  i15 7.10454e+06  imon 6.78431e+06  i7 5.0000  iEMpd_timer 4.8000  iEMpd_1 3.5042E-08  iEMpd_2 7.9100E-08  iEMpd_3 1.6545E-08  iEMpd_4 4.6853E-08  iEMhp_timer 4.8000  iEMhp_1 4.9327E-06  iEMhp_2 -2.4419E-08  iEMhp_3 -2.4580E-08  iEMhp_4 -2.1215E-08
#      9776
 1.7416  70594  265.797
 1.9396  46549.5  216.109
 2.1376  33349.6  182.921
 2.3356  29878.4  172.776
 2.5336  27868.6  167.451
 2.7316  26281.1  162.702
 2.9296  25432.4  160.223
 3.1276  24556.7  156.99
 3.3256  24588.2  156.747
 3.5236  26159.6  161.48
 3.7216  24000.9  155.935
 3.9196  23363.3  153.076
 4.1176  23333.7  152.746
 4.3156  24637  157.113
 4.5136  26819.4  162.897
 4.7116  27846.3  167.141
 4.9096  27401.6  165.227
 5.1076  26936.3  164.405
 5.3056  27341.3  165.36
 5.5036  27128  164.603
 5.7016  27560.1  165.88
 5.8996  28005.8  166.423
 6.0976  28890.1  170.488
 6.2956  29486  171.561
 6.4936  30266.8  172.996
 6.6916  30628.3  175.042
 6.8896  31235.3  176.625
 7.0876  32398.6  180.623
 7.2856  32215.7  179.16
 7.4836  32873.2  180.305
 7.6816  33417.9  182.334
 7.8796  34950  186.45
 8.0776  36608.6  191.82
 8.2756  38501.5  195.297
 8.4736  39179.7  196.813
 8.6716  38504.1  195.75
 8.8696  38244.3  195.584
 9.0676  37791.4  193.784
 9.2656  36591.6  191.378
 9.4636  35989.4  188.191
 9.6616  35400.7  187.43
 9.8596  34245.6  183.789
 10.0576  32379.7  179.378
 10.2556  31299.8  176.811
 10.4536  30067  172.894
 10.6516  29207.7  170.603
 10.8496  28389.8  167.612
 11.0476  27705  165.598
 11.2456  27112.3  164.356
 11.4436  27402.2  164.39
 11.6416  27283.9  164.403
 11.8396  25402.5  158.837
 12.0376  25417.9  158.522
 12.2356  24970.1  157.513
 12.4336  24725.8  156.292
 12.6316  24428.5  155.62
 12.8296  24855.6  156.607
 13.0276  25259.9  158.059
 13.2256  25299.2  158.556
 13.4236  25421.1  158.699
 13.6216  25054.7  157.564
 13.8196  25207.4  157.812
 14.0176  24691.4  156.476
 14.2156  24163.5  153.825
 14.4136  23053.4  151.642
 14.6116  22809.3  150.034
 14.8096  22175.5  147.92
 15.0076  20861.1  147.314
 15.2056  20676.1  142.42
 15.4036  19645.3  139.656
 15.6016  19119.7  136.859
 15.7996  18530.6  135.019
 15.9976  17960.7  135.909
 16.1956  17416.8  131.691
 16.3936  17334.7  130.54
 16.5916  16814.2  129.203
 16.7896  16887.1  129.543
 16.9876  16655.7  130.121
 17.1856  16431.7  127.591
 17.3836  15986.2  125.743
 17.5816  15522.9  124.408
 17.7796  15258.2  123.275
 17.9776  15204.8  123.863
 18.1756  15228.3  122.641
 18.3736  14957.6  122.065
 18.5716  14834.2  121.31
 18.7696  14953.4  121.361
 18.9676  14609.3  119.762
 19.1656  14466.3  119.741
 19.3636  14387.5  119.611
 19.5616  14325  119.529
 19.7596  14401.5  119.243
 19.9576  14726.1  120.635
 20.1556  15113  122.751
 20.3536  14061.5  117.773
 20.5516  13932.7  117.685
 20.7496  13537.9  115.95
 20.9476  13372.3  114.988
 21.1456  13543.1  116.047
 21.3436  13339.8  115.13
 21.5416  13223.2  114.624
 21.7396  13169.8  114.232
 21.9376  13101.2  113.703
 22.1356  13101.2  113.823
 22.3336  13067.8  113.971
 22.5316  13031.4  113.898
 22.7296  13136.1  113.716
 22.9276  13013.6  113.868
 23.1256  13139  113.885
 23.3236  13195.7  114.711
 23.5216  13005.9  113.533
 23.7196  12770.8  112.438
 23.9176  12720.9  111.973
 24.1156  12564.7  111.767
 24.3136  12193.8  110.899
 24.5116  12233.7  110.6
 24.7096  11779  108.342
 24.9076  11617.8  107.626
 25.1056  11464.5  107.38
 25.3036  11387.3  106.521
 25.5016  11257.2  105.945
 25.6996  11302.2  105.734
 25.8976  11259.3  105.977
 26.0956  11234.9  105.883
 26.2936  11305  105.847
 26.4916  11353.3  105.96
 26.6896  11050  104.829
 26.8876  10928.2  104.105
 27.0856  10937.8  104.2
 27.2836  10690.5  102.91
 27.4816  10621.4  102.506
 27.6796  10563.2  102.608
 27.8776  10451.1  101.92
 28.0756  10411.8  102.014
 28.2736  10337.7  101.228
 28.4716  10146.9  100.34
 28.6696  10233.4  100.614
 28.8676  10137.2  100.488
 29.0656  9967.55  99.6263
 29.2636  10036.1  99.751
 29.4616  9969.64  99.6086
 29.6596  10018  99.4084
 29.8576  9707.94  98.5485
 30.0556  9872.97  99.2619
 30.2536  9837.29  98.8668
 30.4516  9749.36  98.0861
 30.6496  9728.64  97.7046
 30.8476  9786.43  98.4457
 31.0456  9583.96  97.3826
 31.2436  9546.64  96.4519
 31.4416  9444.99  96.1076
 31.6396  9506.97  96.4689
 31.8376  9492.11  95.9379
 32.0356  9478.5  96.4428
 32.2336  9290.84  94.8696
 32.4316  9221.14  94.9196
 32.6296  9142.42  94.3498
 32.8276  9255.33  94.7046
 33.0256  9198.35  94.4926
 33.2236  9154.26  94.4101
 33.4216  9248.02  94.5775
 33.6196  9164.92  94.4456
 33.8176  8980.49  93.6599
 34.0156  9118.18  93.9711
 34.2136  8927.76  93.0376
 34.4116  8876.19  92.9191
 34.6096  8824.82  92.5269
 34.8076  8829.34  92.9681
 35.0056  8904.39  93.0457
 35.2036  8725.95  92.3125
 35.4016  8773.45  92.4913
 35.5996  8716.47  92.2257
 35.7976  8552.7  91.6321
 35.9956  8741.01  92.2749
 36.1936  8619.57  91.5007
 36.3916  8549.03  91.3014
 36.5896  8365.2  91.2824
 36.7876  8501.2  91.4259
 36.9856  8399.79  90.9061
 37.1836  8440.75  90.2183
 37.3816  8527.19  91.052
 37.5796  8324.06  91.7041
 37.7776  8313.95  90.0104
 37.9756  8161.92  89.0598
 38.1736  8500.21  91.09
 38.3716  8383.89  90.7386
 38.5696  8218.09  90.2178
 38.7676  8056.63  88.8293
 38.9656  8102.16  88.7095
 39.1636  8072.37  88.8157
 39.3616  8150.7  89.1748
 39.5596  8063.24  89.5491
 39.7576  8029.53  88.7351
 39.9556  8135.99  88.9589
 40.1536  8290.75  90.0061
 40.3516  8239.93  89.7383
 40.5496  8175.78  89.6525
 40.7476  8201.58  89.798
 40.9456  8309.24  90.1324
 41.1436  8224.72  89.3897
 41.3416  8058.46  88.8164
 41.5396  8030.28  88.4667
 41.7376  8104.33  89.1407
 41.9356  8060.6  88.7647
 42.1336  8101.51  89.1409
 42.3316  8002.19  88.7895
 42.5296  8031.64  88.464
 42.7276  8052.71  88.8237
 42.9256  8106.55  88.9862
 43.1236  7931.97  88.1336
 43.3216  7981.02  88.1547
 43.5196  7837.27  87.418
 43.7176  7851.79  87.8954
 43.9156  7665.89  86.7494
 44.1136  7789.02  87.0002
 44.3116  7831.84  87.2558
 44.5096  7578.84  86.1393
 44.7076  7823.47  87.4472
 44.9056  7730.36  86.7995
 45.1036  7693.81  86.2186
 45.3016  7483.27  85.5286
 45.4996  7468.71  85.3852
 45.6976  7417.56  85.2652
 45.8956  7561.81  85.9007
 46.0936  7461.91  85.3395
 46.2916  7460.56  85.3073
 46.4896  7427.53  85.1528
 46.6876  7382.25  85.6074
 46.8856  7397.56  84.9518
 47.0836  7319.42  84.749
 47.2816  7292.47  84.4693
 47.4796  7242.19  84.2769
 47.6776  7209.23  85.0345
 47.8756  7288.48  84.6772
 48.0736  7308.06  85.2531
 48.2716  7099.37  83.8435
 48.4696  7191.74  83.9765
 48.6676  7136.8  84.244
 48.8656  7137  83.967
 49.0636  7217.1  84.3889
 49.2616  6913.6  82.6247
 49.4596  6999.23  82.7056
 49.6576  7095.53  83.501
 49.8556  7018.52  83.0653
 50.0536  6929.61  82.9831
 50.2516  7001.28  83.549
 50.4496  6952.32  82.9035
 50.6476  7039.35  83.101
 50.8456  6885.96  82.2803
 51.0436  6858.07  82.5542
 51.2416  6855.74  82.2149
 51.4396  6709.96  81.7295
 51.6376  6708.88  81.5487
 51.8356  6672.16  80.9576
 52.0336  6531.59  80.6104
 52.2316  6615.06  81.4741
 52.4296  6678.45  81.5448
 52.6276  6661.94  81.555
 52.8256  6716.25  81.4514
 53.0236  6561.06  81.1458
 53.2216  6536.43  81.0269
 53.4196  6399.6  80.1002
 53.6176  6588.31  81.7539
 53.8156  6460.13  80.6269
 54.0136  6463.38  80.8285
 54.2116  6442.02  80.353
 54.4096  6483.02  80.6568
 54.6076  6283.88  79.7555
 54.8056  6298.24  79.6313
 55.0036  6403  80.6826
 55.2016  6384.78  80.1139
 55.3996  6316.64  79.6595
 55.5976  6363.82  80.1468
 55.7956  6350.65  79.8787
 55.9936  6347.1  79.9931
 56.1916  6302.02  79.7233
 56.3896  6352.53  80.033
 56.5876  6303.58  80.2791
 56.7856  6249.65  79.4154
 56.9836  6210.44  78.9528
 57.1816  6272.09  79.7241
 57.3796  6344.8  79.9739
 57.5776  6285.15  79.5343
 57.7756  6210.06  79.6957
 57.9736  6195.92  79.2728
 58.1716  6267.23  79.9769
 58.3696  6271.05  79.7416
 58.5676  6225.9  78.9304
 58.7656  6284.65  79.9827
 58.9636  6262.13  79.8744
 59.1616  6424.79  81.0284
 59.3596  6428.8  80.3024
 59.5576  6429.74  80.3715
 59.7556  6292.3  79.9348
 59.9536  6350.05  80.1971
 60.1516  6286.9  80.6634
 60.1996  0.0000000E+00  0.0000000E+00