File: docs/examples/XRD/IS17_D/Data/IS17_D/17_Da_f00070.xye
# /beamlines/bl04/projects/cycle2025-II/20250340211-lsimonelli/DATA/IS17_D/17_Da_f00070.xye : mythproc.py merge -s 0.006 -l 0.5 -f /beamlines/bl04/inhouse/ff/FlatField/ff_20Nov2024rod8mm60s_17keV.raw -b True -c true -o xye /beamlines/bl04/projects/cycle2025-II/20250340211-lsimonelli/DATA/IS17_D/17_Da_00070.dat
# IsMon = [6780545, 6784289, 6784293]  IsPos = [-1.4999, -2.4884, -3.4988]
# Wave = 0.4962  CalPath /beamlines/bl04/projects/cycle2025-II/20250340211-lsimonelli/DATA/Align/Si_Pos1_25keV_f00001.cal
# Date = 2025-09-24_13:02:53 Dt = 4.8000  Bin = 0.0060  <imon> = 6783042 +/- 1766 (Min/Max) 6780545 / 6784293
# icurr 251.8092  mocoIn 1.7184E-05  mocoOut 0.8059  i15 7.10032e+06  imon 6.78304e+06  i7 5.6667  iEMpd_timer 4.8000  iEMpd_1 3.3313E-08  iEMpd_2 7.9009E-08  iEMpd_3 1.6009E-08  iEMpd_4 4.7158E-08  iEMhp_timer 4.8000  iEMhp_1 4.9199E-06  iEMhp_2 -2.5312E-08  iEMhp_3 -2.4885E-08  iEMhp_4 -2.0426E-08
#      9776
 1.7416  68886.8  262.587
 1.9396  44950.5  212.382
 2.1376  31797  178.628
 2.3356  28521.7  168.822
 2.5336  28019.7  167.919
 2.7316  25032.1  158.804
 2.9296  23647.3  154.509
 3.1276  23199.5  152.595
 3.3256  22946.2  151.43
 3.5236  24953.6  157.719
 3.7216  22632.9  151.425
 3.9196  22605.3  150.572
 4.1176  22102.5  148.662
 4.3156  23502.6  153.453
 4.5136  26388.4  161.584
 4.7116  27007.4  164.601
 4.9096  26298.3  161.868
 5.1076  25821.8  160.971
 5.3056  26285.3  162.133
 5.5036  26071.4  161.365
 5.7016  26398.2  162.344
 5.8996  27050.2  163.564
 6.0976  27770.3  167.154
 6.2956  28273.9  167.995
 6.4936  29025.8  169.418
 6.6916  29541.6  171.911
 6.8896  30498.8  174.529
 7.0876  31263.4  177.432
 7.2856  31246.3  176.445
 7.4836  31786.6  177.3
 7.6816  32438.3  179.64
 7.8796  33885.6  183.583
 8.0776  37481.8  194.085
 8.2756  38279.4  194.717
 8.4736  38399  194.835
 8.6716  37534.3  193.266
 8.8696  38088.2  195.185
 9.0676  37601.5  193.293
 9.2656  35635.5  188.864
 9.4636  35190.9  186.074
 9.6616  34287.3  184.451
 9.8596  33077.3  180.631
 10.0576  31249  176.225
 10.2556  30167.8  173.595
 10.4536  32446.3  179.616
 10.6516  33790.9  183.522
 10.8496  27810.1  165.892
 11.0476  27654  165.451
 11.2456  29514.9  171.49
 11.4436  27271.6  163.996
 11.6416  26122.8  160.867
 11.8396  24899.2  157.262
 12.0376  24893.3  156.872
 12.2356  25660.6  159.682
 12.4336  24908.9  156.867
 12.6316  23877.5  153.858
 12.8296  24449.2  155.322
 13.0276  24936.4  157.034
 13.2256  24579.5  156.282
 13.4236  24686.6  156.388
 13.6216  24478.6  155.751
 13.8196  25188.8  157.753
 14.0176  24284.1  155.171
 14.2156  23579.2  151.958
 14.4136  22444.1  149.625
 14.6116  22041.3  147.484
 14.8096  21439.9  145.442
 15.0076  20384.6  145.65
 15.2056  19785.4  139.313
 15.4036  18946.4  137.151
 15.6016  18740.2  135.483
 15.7996  18464.5  134.768
 15.9976  17466.4  134.009
 16.1956  16839.3  129.488
 16.3936  16600.8  127.745
 16.5916  16622.5  128.465
 16.7896  16572.5  128.326
 16.9876  16461.2  129.374
 17.1856  16067.8  126.175
 17.3836  15307.8  123.062
 17.5816  15264.3  123.377
 17.7796  15202.6  123.053
 17.9776  15270.5  124.129
 18.1756  15964.4  125.577
 18.3736  15917.4  125.923
 18.5716  14738.9  120.919
 18.7696  14802.8  120.749
 18.9676  14367.3  118.767
 19.1656  14357.4  119.288
 19.3636  14042.7  118.17
 19.5616  14123.3  118.68
 19.7596  14271  118.706
 19.9576  14818.7  121.016
 20.1556  13904.6  117.733
 20.3536  13635.1  115.961
 20.5516  13342.2  115.16
 20.7496  13157.2  114.306
 20.9476  13554.2  115.764
 21.1456  13701.1  116.724
 21.3436  13031.7  113.791
 21.5416  13149.1  114.305
 21.7396  12854.5  112.862
 21.9376  12962.2  113.096
 22.1356  13069.8  113.694
 22.3336  12797.8  112.79
 22.5316  12822.6  112.985
 22.7296  12908.4  112.717
 22.9276  12696.9  112.473
 23.1256  13039.1  113.445
 23.3236  12558.3  111.903
 23.5216  12528.5  111.428
 23.7196  12484.6  111.179
 23.9176  12391.7  110.523
 24.1156  12322.5  110.681
 24.3136  11848.8  109.325
 24.5116  11858  108.893
 24.7096  11822  108.545
 24.9076  11556.4  107.347
 25.1056  11257.4  106.412
 25.3036  11293.4  106.079
 25.5016  11202.2  105.69
 25.6996  11181.1  105.167
 25.8976  11327.8  106.303
 26.0956  11270.3  106.044
 26.2936  11013.8  104.467
 26.4916  11085.2  104.695
 26.6896  10723.3  103.272
 26.8876  10537.6  102.224
 27.0856  10677.1  102.944
 27.2836  10567.4  102.312
 27.4816  10641.3  102.603
 27.6796  10265  101.149
 27.8776  10478  102.048
 28.0756  10371.6  101.814
 28.2736  10383.4  101.454
 28.4716  10124.7  100.23
 28.6696  9998.99  99.4532
 28.8676  9850.23  99.0567
 29.0656  9835.99  98.9658
 29.2636  9720.22  98.1724
 29.4616  9769.4  98.5991
 29.6596  9753.52  98.0787
 29.8576  9576.91  97.8773
 30.0556  9764.02  98.707
 30.2536  9788.36  98.6178
 30.4516  9715.24  97.9122
 30.6496  9647.23  97.2946
 30.8476  9528.8  97.1383
 31.0456  9532.16  97.1186
 31.2436  9431.74  95.8705
 31.4416  9259.75  95.1692
 31.6396  9662.81  97.2633
 31.8376  9361.35  95.2841
 32.0356  9333.93  95.706
 32.2336  9033.58  93.5505
 32.4316  9130.94  94.455
 32.6296  9023.27  93.732
 32.8276  9111.18  93.9639
 33.0256  9019.17  93.5681
 33.2236  8906.57  93.1268
 33.4216  9084.43  93.7274
 33.6196  8894.61  93.0447
 33.8176  8993.25  93.7287
 34.0156  8916.66  92.9348
 34.2136  8782.92  92.2829
 34.4116  8697.19  91.9693
 34.6096  8791.54  92.3571
 34.8076  8650.68  92.0122
 35.0056  8813.63  92.5714
 35.2036  8619.63  91.756
 35.4016  8658.27  91.8827
 35.5996  8512.07  91.137
 35.7976  8461.17  91.138
 35.9956  8608.84  91.5733
 36.1936  8415.74  90.412
 36.3916  8369.3  90.3332
 36.5896  8410.1  91.5372
 36.7876  8409.25  90.9272
 36.9856  8348.55  90.6224
 37.1836  8367.75  89.8233
 37.3816  8428.99  90.5216
 37.5796  8249.36  91.281
 37.7776  8116.59  88.9314
 37.9756  8048.25  88.4393
 38.1736  8240.72  89.6869
 38.3716  8111.33  89.2578
 38.5696  7991.82  88.9679
 38.7676  7862.65  87.7532
 38.9656  7932.91  87.7862
 39.1636  7878.3  87.7407
 39.3616  8003.41  88.3702
 39.5596  7869.99  88.4724
 39.7576  7913.58  88.0925
 39.9556  7990.73  88.1604
 40.1536  8153.16  89.2596
 40.3516  8123.91  89.1042
 40.5496  8102.9  89.255
 40.7476  8062.13  89.0287
 40.9456  8063.24  88.7874
 41.1436  8063.13  88.5114
 41.3416  7976.47  88.3616
 41.5396  7899.26  87.7469
 41.7376  7948.9  88.2899
 41.9356  7972.98  88.2772
 42.1336  7902.84  88.0408
 42.3316  7904.08  88.2403
 42.5296  7960.46  88.0714
 42.7276  7971.62  88.3746
 42.9256  7910.8  87.8994
 43.1236  7785.51  87.3164
 43.3216  7862.94  87.4984
 43.5196  7764.49  87.0138
 43.7176  7795.63  87.5811
 43.9156  7607.89  86.4258
 44.1136  7715.41  86.5802
 44.3116  7649.42  86.2283
 44.5096  7613.98  86.3366
 44.7076  7616.24  86.279
 44.9056  7631.55  86.2428
 45.1036  7534.52  85.3187
 45.3016  7464.07  85.4185
 45.4996  7544.31  85.8158
 45.6976  7301.55  84.5957
 45.8956  7440.39  85.2136
 46.0936  7494.37  85.5311
 46.2916  7327.15  84.5464
 46.4896  7403.79  85.02
 46.6876  7280.92  85.0162
 46.8856  7339.76  84.6205
 47.0836  7295.76  84.6173
 47.2816  7118.89  83.4539
 47.4796  7195.48  84.0192
 47.6776  7102.41  84.4114
 47.8756  7113.13  83.6519
 48.0736  7142.4  84.2822
 48.2716  7023.23  83.3852
 48.4696  7095.07  83.403
 48.6676  7128.55  84.1961
 48.8656  7186.03  84.2596
 49.0636  7168.58  84.1116
 49.2616  6870.98  82.3754
 49.4596  6988.81  82.6458
 49.6576  6929.51  82.5196
 49.8556  6971.61  82.7867
 50.0536  6903.74  82.8228
 50.2516  6925.99  83.0928
 50.4496  6809.06  82.0443
 50.6476  6837.89  81.9069
 50.8456  6792.98  81.7139
 51.0436  6684.38  81.4988
 51.2416  6721.42  81.3962
 51.4396  6538.29  80.6727
 51.6376  6555.08  80.6065
 51.8356  6632.37  80.71
 52.0336  6496.13  80.385
 52.2316  6482.95  80.6539
 52.4296  6670.02  81.4855
 52.6276  6596.97  81.1633
 52.8256  6505.03  80.1496
 53.0236  6475.65  80.6203
 53.2216  6386.52  80.0993
 53.4196  6357.6  79.8338
 53.6176  6340.18  80.2001
 53.8156  6323.38  79.764
 54.0136  6411.23  80.4991
 54.2116  6358.4  79.8319
 54.4096  6388.24  80.0604
 54.6076  6320.36  79.9863
 54.8056  6288.31  79.573
 55.0036  6285.01  79.9444
 55.2016  6220.29  79.0799
 55.3996  6255.68  79.2672
 55.5976  6214.66  79.1976
 55.7956  6249.77  79.2365
 55.9936  6289.76  79.6325
 56.1916  6256.08  79.4243
 56.3896  6203.95  79.0916
 56.5876  6162.53  79.3773
 56.7856  6095.05  78.432
 56.9836  6109.49  78.3099
 57.1816  6185.89  79.1719
 57.3796  6206.64  79.1037
 57.5776  6311.36  79.6992
 57.7756  6152.97  79.326
 57.9736  6179.7  79.1692
 58.1716  6201.96  79.5543
 58.3696  6165.65  79.0704
 58.5676  6171.87  78.585
 58.7656  6249.38  79.7503
 58.9636  6148.25  79.1413
 59.1616  6226.18  79.7597
 59.3596  6306.6  79.5307
 59.5576  6289.93  79.4838
 59.7556  6191.41  79.2823
 59.9536  6312.08  79.9477
 60.1516  6297.06  80.7192
 60.1996  0.0000000E+00  0.0000000E+00