File: docs/examples/XRD/IS17_D/Data/IS17_D/17_Da_f00035.xye
# /beamlines/bl04/projects/cycle2025-II/20250340211-lsimonelli/DATA/IS17_D/17_Da_f00035.xye : mythproc.py merge -s 0.006 -l 0.5 -f /beamlines/bl04/inhouse/ff/FlatField/ff_20Nov2024rod8mm60s_17keV.raw -b True -c true -o xye /beamlines/bl04/projects/cycle2025-II/20250340211-lsimonelli/DATA/IS17_D/17_Da_00035.dat
# IsMon = [6789664, 6790158, 6790240]  IsPos = [-1.5000, -2.4885, -3.4986]
# Wave = 0.4962  CalPath /beamlines/bl04/projects/cycle2025-II/20250340211-lsimonelli/DATA/Align/Si_Pos1_25keV_f00001.cal
# Date = 2025-09-24_03:19:08 Dt = 4.8000  Bin = 0.0060  <imon> = 6790021 +/- 254 (Min/Max) 6789664 / 6790240
# icurr 252.6925  mocoIn 1.7246E-05  mocoOut 0.8088  i15 7.10427e+06  imon 6.79002e+06  i7 7.6667  iEMpd_timer 4.8000  iEMpd_1 3.5834E-08  iEMpd_2 7.6977E-08  iEMpd_3 1.6149E-08  iEMpd_4 4.9476E-08  iEMhp_timer 4.8000  iEMhp_1 4.9376E-06  iEMhp_2 -2.5358E-08  iEMhp_3 -2.3725E-08  iEMhp_4 -2.1770E-08
#      9776
 1.7416  70705.1  265.988
 1.9396  46584.9  216.176
 2.1376  32443.3  180.406
 2.3356  29266.6  170.986
 2.5336  27374.6  165.948
 2.7316  25276.4  159.567
 2.9296  24267.1  156.515
 3.1276  23794.7  154.541
 3.3256  23525.4  153.329
 3.5236  25290.7  158.93
 3.7216  23383.4  153.916
 3.9196  22762.8  151.096
 4.1176  22476.3  149.914
 4.3156  23676.9  154.026
 4.5136  26335.7  161.427
 4.7116  27449.7  165.944
 4.9096  26525.7  162.567
 5.1076  26453.4  162.921
 5.3056  26779.8  163.548
 5.5036  26393.8  162.382
 5.7016  26771  163.488
 5.8996  27452  164.771
 6.0976  27955.4  167.703
 6.2956  28282.1  168.023
 6.4936  29268.3  170.121
 6.6916  29549.5  171.935
 6.8896  30282.3  173.913
 7.0876  31320.4  177.51
 7.2856  31074  175.954
 7.4836  31157.6  175.535
 7.6816  32202.8  178.985
 7.8796  33429.8  182.356
 8.0776  34923.2  187.358
 8.2756  36734  190.766
 8.4736  37278.5  191.986
 8.6716  36261  189.978
 8.8696  36321.2  190.605
 9.0676  35490.9  187.786
 9.2656  34177.3  184.953
 9.4636  33839.3  182.475
 9.6616  33085  181.183
 9.8596  31899.4  177.382
 10.0576  30279.8  173.472
 10.2556  29314.8  171.117
 10.4536  27998.3  166.846
 10.6516  27269.9  164.845
 10.8496  26663.4  162.425
 11.0476  25835.8  159.868
 11.2456  25291.6  158.742
 11.4436  25473.8  158.5
 11.6416  25926.8  160.262
 11.8396  23890.5  154.038
 12.0376  23983.8  153.963
 12.2356  23401.9  152.529
 12.4336  23406  152.064
 12.6316  23188.8  151.616
 12.8296  23395.1  151.935
 13.0276  23985.2  154.017
 13.2256  24055.8  154.611
 13.4236  23646.7  153.056
 13.6216  23802  153.576
 13.8196  23990.6  153.953
 14.0176  23403.2  152.345
 14.2156  22756.8  149.281
 14.4136  21819.4  147.528
 14.6116  21394  145.303
 14.8096  20964  143.821
 15.0076  19698  143.162
 15.2056  19484.4  138.258
 15.4036  18474.5  135.439
 15.6016  18273.5  133.801
 15.7996  17804  132.344
 15.9976  17063.1  132.455
 16.1956  16451.6  127.983
 16.3936  16215.5  126.244
 16.5916  15956.7  125.861
 16.7896  16008.7  126.122
 16.9876  15866.4  127.009
 17.1856  15569.4  124.204
 17.3836  15124.7  122.308
 17.5816  14531.9  120.37
 17.7796  14520.2  120.259
 17.9776  14283.6  120.05
 18.1756  14463.9  119.531
 18.3736  14260.3  119.19
 18.5716  13954.7  117.66
 18.7696  14002  117.436
 18.9676  13665.8  115.828
 19.1656  13572.7  115.982
 19.3636  13662.3  116.563
 19.5616  13649.2  116.678
 19.7596  13590.2  115.839
 19.9576  13946.7  117.394
 20.1556  14479.9  120.153
 20.3536  13632.3  115.96
 20.5516  13148.3  114.327
 20.7496  12894.2  113.071
 20.9476  12801  112.501
 21.1456  12909.8  113.307
 21.3436  12689.6  112.29
 21.5416  12559.7  111.71
 21.7396  12384  110.777
 21.9376  12359.9  110.445
 22.1356  12462.7  111.045
 22.3336  12434.7  111.167
 22.5316  12347.4  110.884
 22.7296  12428.2  110.612
 22.9276  12366.7  111.008
 23.1256  12496.4  111.073
 23.3236  12414.9  111.248
 23.5216  12352.4  110.638
 23.7196  12102.7  109.672
 23.9176  12226.4  109.775
 24.1156  11951.2  108.999
 24.3136  11555.7  107.96
 24.5116  11601.5  107.704
 24.7096  11486.2  106.987
 24.9076  11061.5  105.017
 25.1056  10832.6  104.106
 25.3036  10860.4  104.028
 25.5016  10817  103.855
 25.6996  10778  103.25
 25.8976  10710.2  103.359
 26.0956  10767.9  103.657
 26.2936  10666.9  102.817
 26.4916  10780.4  103.245
 26.6896  10461.7  102
 26.8876  10314.8  101.138
 27.0856  10437.4  101.741
 27.2836  10213.3  100.746
 27.4816  10167.6  100.296
 27.6796  10097.2  100.321
 27.8776  9927.69  99.3328
 28.0756  9944.85  99.7027
 28.2736  9847.06  98.7942
 28.4716  9719.59  98.198
 28.6696  9686.45  97.8895
 28.8676  9558.83  97.5851
 29.0656  9411.26  96.806
 29.2636  9554.34  97.2507
 29.4616  9379.68  96.6204
 29.6596  9436.98  96.4857
 29.8576  9280.54  96.3587
 30.0556  9349.32  96.5914
 30.2536  9488.52  97.1044
 30.4516  9147.59  95.0058
 30.6496  9329.09  95.6719
 30.8476  9185.06  95.3671
 31.0456  9191.4  95.358
 31.2436  9163.96  94.4943
 31.4416  8835.36  92.9579
 31.6396  8992.52  93.8279
 31.8376  8971.31  93.2697
 32.0356  8884.92  93.3738
 32.2336  8861.47  92.6492
 32.4316  8755.37  92.4942
 32.6296  8805.51  92.5314
 32.8276  8843.24  92.5651
 33.0256  8734.49  92.0762
 33.2236  8729.92  92.1944
 33.4216  8763.11  92.0631
 33.6196  8704.04  92.0437
 33.8176  8666.96  92.0106
 34.0156  8563.92  91.0805
 34.2136  8518.83  90.8807
 34.4116  8412.72  90.4631
 34.6096  8493.44  90.7683
 34.8076  8411.75  90.7415
 35.0056  8334.57  90.018
 35.2036  8388.75  90.5099
 35.4016  8392.98  90.4647
 35.5996  8262.64  89.7934
 35.7976  8168.71  89.5561
 35.9956  8268.64  89.7463
 36.1936  8105.69  88.7267
 36.3916  8106.32  88.9015
 36.5896  8061.09  90.0786
 36.7876  7989.23  88.6333
 36.9856  8033.02  88.9021
 37.1836  8043.96  88.0708
 37.3816  8131.28  88.9121
 37.5796  7975.5  89.7635
 37.7776  7835.59  87.3725
 37.9756  7893.26  87.5732
 38.1736  8057.74  88.6826
 38.3716  7786.5  87.4455
 38.5696  7756.47  87.6448
 38.7676  7544.88  85.9599
 38.9656  7672.35  86.3292
 39.1636  7748.67  86.9811
 39.3616  7811.67  87.3057
 39.5596  7638.79  87.1704
 39.7576  7733.55  87.0835
 39.9556  7732.19  86.7259
 40.1536  7871.42  87.6987
 40.3516  7862.05  87.7398
 40.5496  7786.39  87.2822
 40.7476  7857.51  87.8962
 40.9456  7857.06  87.6506
 41.1436  7771.9  86.8937
 41.3416  7813.6  87.4584
 41.5396  7754.31  86.9347
 41.7376  7698.11  86.8819
 41.9356  7733.37  86.9417
 42.1336  7715.2  86.9826
 42.3316  7718.58  87.2023
 42.5296  7594.31  86.0205
 42.7276  7816.24  87.5108
 42.9256  7715.17  86.8106
 43.1236  7481.72  85.5938
 43.3216  7601.75  86.1342
 43.5196  7485.77  85.4344
 43.7176  7502.58  85.919
 43.9156  7335.59  84.8712
 44.1136  7357.35  84.558
 44.3116  7455.63  85.1321
 44.5096  7357.98  84.8798
 44.7076  7373.19  84.8981
 44.9056  7328.45  84.5107
 45.1036  7311.68  84.0455
 45.3016  7190.48  83.8329
 45.4996  7180.01  83.7141
 45.6976  7097.79  83.4063
 45.8956  7126.42  83.3955
 46.0936  7128.58  83.1714
 46.2916  7191.17  83.7533
 46.4896  7306.99  84.4646
 46.6876  7183.1  84.4425
 46.8856  6974.4  82.5966
 47.0836  7014.79  82.969
 47.2816  6986.62  82.6821
 47.4796  7078.88  83.3259
 47.6776  6787.01  82.5125
 47.8756  6923.14  82.5278
 48.0736  6955.1  83.1491
 48.2716  6793.92  82.0101
 48.4696  6882.73  82.1562
 48.6676  6842.82  82.487
 48.8656  6820.49  82.0749
 49.0636  6778.71  81.782
 49.2616  6668.56  81.1496
 49.4596  6778.6  81.3896
 49.6576  6704.19  81.1581
 49.8556  6642.95  80.8122
 50.0536  6630.16  81.1703
 50.2516  6581.38  80.9746
 50.4496  6704.93  81.418
 50.6476  6584.96  80.3756
 50.8456  6616.09  80.6435
 51.0436  6460.24  80.1258
 51.2416  6460.9  79.8133
 51.4396  6379.21  79.6908
 51.6376  6391.42  79.601
 51.8356  6263.05  78.437
 52.0336  6306.8  79.206
 52.2316  6368.59  79.9382
 52.4296  6330.62  79.3929
 52.6276  6231.37  78.8799
 52.8256  6391.91  79.4583
 53.0236  6151.73  78.575
 53.2216  6192.23  78.8404
 53.4196  6125.73  78.3686
 53.6176  6037.7  78.266
 53.8156  6100.22  78.3416
 54.0136  6179  79.0244
 54.2116  6078.72  78.0526
 54.4096  6133.31  78.4455
 54.6076  6078.33  78.4422
 54.8056  6005.36  77.762
 55.0036  6004  78.012
 55.2016  6084.32  78.1362
 55.3996  6071.88  78.0984
 55.5976  6023.28  77.9663
 55.7956  5984.94  77.5396
 55.9936  6035.31  78.0027
 56.1916  6007.16  77.8417
 56.3896  6029.39  77.9716
 56.5876  5923.61  77.8185
 56.7856  5892.59  77.1094
 56.9836  5923.62  77.1009
 57.1816  5963.07  77.7333
 57.3796  5925.01  77.2625
 57.5776  5930.01  77.2538
 57.7756  5967.34  78.126
 57.9736  5904.53  77.3906
 58.1716  5902.64  77.6146
 58.3696  5849.18  77.0208
 58.5676  6025.81  77.6547
 58.7656  5972.98  77.9717
 58.9636  6061.51  78.5848
 59.1616  5843.79  77.2794
 59.3596  6070.25  78.0327
 59.5576  6028.11  77.8178
 59.7556  6017.06  78.164
 59.9536  6161.97  78.9974
 60.1516  6055.49  79.1618
 60.1996  0.0000000E+00  0.0000000E+00