File: docs/examples/XRD/IS17_D/Data/IS17_D/17_Db_f00067.xye
# /beamlines/bl04/projects/cycle2025-II/20250340211-lsimonelli/DATA/IS17_D/17_Db_f00067.xye : mythproc.py merge -s 0.006 -l 0.5 -f /beamlines/bl04/inhouse/ff/FlatField/ff_20Nov2024rod8mm60s_17keV.raw -b True -c true -o xye /beamlines/bl04/projects/cycle2025-II/20250340211-lsimonelli/DATA/IS17_D/17_Db_00067.dat
# IsMon = [6777511, 6779851, 6779777]  IsPos = [-1.4999, -2.4884, -3.4988]
# Wave = 0.4962  CalPath /beamlines/bl04/projects/cycle2025-II/20250340211-lsimonelli/DATA/Align/Si_Pos1_25keV_f00001.cal
# Date = 2025-09-24_12:21:35 Dt = 4.8000  Bin = 0.0060  <imon> = 6779046 +/- 1086 (Min/Max) 6777511 / 6779851
# icurr 252.1210  mocoIn 1.7208E-05  mocoOut 0.8073  i15 7.10549e+06  imon 6.77905e+06  i7 3.0000  iEMpd_timer 4.8000  iEMpd_1 3.2814E-08  iEMpd_2 7.8582E-08  iEMpd_3 1.6402E-08  iEMpd_4 4.6781E-08  iEMhp_timer 4.8000  iEMhp_1 4.9266E-06  iEMhp_2 -2.4949E-08  iEMhp_3 -2.4983E-08  iEMhp_4 -2.1210E-08
#      9776
 1.7416  69556.8  263.842
 1.9396  47988.6  219.433
 2.1376  35357.3  188.348
 2.3356  31597.7  177.68
 2.5336  30163.4  174.212
 2.7316  26676.7  163.936
 2.9296  25479.6  160.372
 3.1276  24950.7  158.245
 3.3256  24269.9  155.729
 3.5236  25894.6  160.655
 3.7216  23797.1  155.261
 3.9196  23389.2  153.136
 4.1176  23306.8  152.656
 4.3156  24068.7  155.29
 4.5136  26863.5  163.031
 4.7116  27773.8  166.916
 4.9096  26878.3  163.632
 5.1076  26630.5  163.462
 5.3056  26624.6  163.169
 5.5036  26468.8  162.596
 5.7016  26917  163.93
 5.8996  27329  164.413
 6.0976  28207.2  168.442
 6.2956  28291.4  168.045
 6.4936  29177.4  169.856
 6.6916  29467.9  171.687
 6.8896  30723.6  175.138
 7.0876  31360.3  177.701
 7.2856  31075.7  175.952
 7.4836  31752.6  177.199
 7.6816  32395.8  179.495
 7.8796  33530.4  182.612
 8.0776  36244.8  190.864
 8.2756  36989.4  191.427
 8.4736  37262.7  191.942
 8.6716  36602  190.851
 8.8696  37917.5  194.777
 9.0676  37096.1  191.971
 9.2656  35443.7  188.345
 9.4636  34579.9  184.492
 9.6616  33844.5  183.25
 9.8596  33088.2  180.637
 10.0576  31396.7  176.629
 10.2556  30419.9  174.312
 10.4536  32136.4  178.741
 10.6516  31540.9  177.302
 10.8496  27633.1  165.365
 11.0476  27323.8  164.449
 11.2456  28230.9  167.715
 11.4436  27011.6  163.211
 11.6416  25650.5  159.385
 11.8396  24822.3  157.003
 12.0376  24212.3  154.701
 12.2356  24856.5  157.163
 12.4336  24226.5  154.706
 12.6316  23835.1  153.712
 12.8296  24037.2  153.979
 13.0276  24415.4  155.391
 13.2256  24144  154.888
 13.4236  24196.3  154.829
 13.6216  24635.5  156.221
 13.8196  27209  163.637
 14.0176  23643.1  153.123
 14.2156  23174.5  150.628
 14.4136  21929.3  147.899
 14.6116  21736.5  146.451
 14.8096  20930  143.684
 15.0076  20186.3  144.996
 15.2056  19362  137.816
 15.4036  18472.3  135.434
 15.6016  17932  132.54
 15.7996  17501.8  131.209
 15.9976  17279.3  133.246
 16.1956  16916.3  129.76
 16.3936  16511.9  127.379
 16.5916  16464  127.836
 16.7896  16489.8  127.984
 16.9876  16276.1  128.623
 17.1856  16080.8  126.223
 17.3836  15514.4  123.893
 17.5816  15234.9  123.249
 17.7796  15090.1  122.587
 17.9776  15007.6  123.034
 18.1756  15618.1  124.227
 18.3736  15392.2  123.819
 18.5716  14514.3  119.992
 18.7696  14622.6  120.001
 18.9676  14244.2  118.243
 19.1656  13960.6  117.635
 19.3636  13966.9  117.858
 19.5616  13811.2  117.365
 19.7596  14237.9  118.569
 19.9576  14845.4  121.108
 20.1556  13591.4  116.394
 20.3536  13492.1  115.366
 20.5516  13277.4  114.877
 20.7496  13059.3  113.871
 20.9476  13354.3  114.912
 21.1456  13261.4  114.833
 21.3436  12794  112.745
 21.5416  12741.9  112.529
 21.7396  12644  111.935
 21.9376  12644.1  111.711
 22.1356  12802.8  112.529
 22.3336  12489.2  111.426
 22.5316  12518  111.647
 22.7296  12267.5  109.896
 22.9276  12204.6  110.275
 23.1256  12674.2  111.854
 23.3236  12450.2  111.435
 23.5216  12613.4  111.795
 23.7196  12419.1  110.891
 23.9176  12497.1  110.991
 24.1156  12274.9  110.445
 24.3136  12016.4  110.086
 24.5116  12104.1  110.008
 24.7096  11829.4  108.552
 24.9076  11525.1  107.186
 25.1056  11294.1  106.56
 25.3036  10883.3  104.129
 25.5016  11107.6  105.237
 25.6996  11074.6  104.664
 25.8976  11252  105.939
 26.0956  11075  105.111
 26.2936  10905.5  103.967
 26.4916  11137.9  104.929
 26.6896  10798.7  103.624
 26.8876  10737.6  103.18
 27.0856  10550.1  102.338
 27.2836  10417.1  101.578
 27.4816  10431.7  101.591
 27.6796  10204.4  100.838
 27.8776  10608.6  102.671
 28.0756  10133.2  100.635
 28.2736  10139  100.249
 28.4716  9890.96  99.0665
 28.6696  10030.9  99.6081
 28.8676  9748.79  98.5474
 29.0656  9733.38  98.446
 29.2636  9678.57  97.9604
 29.4616  9417.54  96.811
 29.6596  9512.65  96.8678
 29.8576  9225.99  96.0693
 30.0556  9386.2  96.7716
 30.2536  9462.17  96.9651
 30.4516  9629.24  97.4556
 30.6496  9633.93  97.2102
 30.8476  9406.18  96.5089
 31.0456  9524.79  97.0737
 31.2436  9440.76  95.9076
 31.4416  9281.12  95.2749
 31.6396  9638.43  97.1332
 31.8376  9501.05  95.94
 32.0356  9377.86  95.8895
 32.2336  9287.07  94.85
 32.4316  8979.88  93.6642
 32.6296  9008.74  93.6536
 32.8276  8992.81  93.3601
 33.0256  8851.95  92.6877
 33.2236  8952.88  93.3628
 33.4216  8939.33  92.9739
 33.6196  8765.49  92.3525
 33.8176  8897.92  93.2283
 34.0156  8660.48  91.5979
 34.2136  8770.05  92.2019
 34.4116  8487.18  90.8648
 34.6096  8590.25  91.2947
 34.8076  8506.92  91.2658
 35.0056  8473.19  90.7521
 35.2036  8759.26  92.5031
 35.4016  8388.9  90.4375
 35.5996  8394.49  90.506
 35.7976  8368.48  90.6425
 35.9956  8526.97  91.1381
 36.1936  8446.23  90.5542
 36.3916  8331.26  90.1333
 36.5896  8418.26  91.5972
 36.7876  7996.83  88.6691
 36.9856  8057.6  89.0314
 37.1836  8073.35  88.2321
 37.3816  7970.78  88.0295
 37.5796  8106.03  90.4971
 37.7776  8117.03  88.9316
 37.9756  8186.51  89.1984
 38.1736  8221.4  89.5793
 38.3716  8003.32  88.6411
 38.5696  8024.51  89.1377
 38.7676  7920.66  88.0764
 38.9656  7970.03  87.9787
 39.1636  8035.97  88.6127
 39.3616  7926.27  87.941
 39.5596  7765.22  87.8687
 39.7576  7806.29  87.499
 39.9556  7922.96  87.7838
 40.1536  8045.91  88.6591
 40.3516  8047.32  88.6837
 40.5496  8013.62  88.7478
 40.7476  8044.48  88.9303
 40.9456  8029.79  88.5949
 41.1436  7987.43  88.0923
 41.3416  7851.05  87.6693
 41.5396  7841.08  87.4207
 41.7376  7808.88  87.4976
 41.9356  7857.18  87.6284
 42.1336  8031.6  88.7381
 42.3316  7898.67  88.2069
 42.5296  7952.08  88.0208
 42.7276  7863.93  87.7701
 42.9256  7935.82  88.0449
 43.1236  7699.39  86.8262
 43.3216  7895.41  87.6715
 43.5196  7846.87  87.4536
 43.7176  7734.21  87.2304
 43.9156  7549.75  86.0973
 44.1136  7454.5  85.1108
 44.3116  7616.52  86.0385
 44.5096  7507.93  85.737
 44.7076  7551.09  85.9115
 44.9056  7862.68  87.5376
 45.1036  7606.96  85.7281
 45.3016  7635.62  86.3883
 45.4996  7537.45  85.7742
 45.6976  7499.55  85.7329
 45.8956  7602.58  86.1283
 46.0936  7695.25  86.6615
 46.2916  7636.29  86.307
 46.4896  7627.72  86.2862
 46.6876  7549.6  86.5624
 46.8856  7448.41  85.2408
 47.0836  7455.92  85.536
 47.2816  7416.84  85.1888
 47.4796  7481.04  85.6724
 47.6776  7370.32  85.9947
 47.8756  7364.21  85.1173
 48.0736  7387.97  85.7184
 48.2716  7346.39  85.2838
 48.4696  7466.66  85.5647
 48.6676  7397.52  85.7741
 48.8656  7454.54  85.81
 49.0636  7430.75  85.6232
 49.2616  7271.25  84.7367
 49.4596  7377.44  84.9148
 49.6576  7353.61  85.0015
 49.8556  7268.88  84.5336
 50.0536  7337.21  85.386
 50.2516  7316.29  85.3981
 50.4496  7342.7  85.2014
 50.6476  7338.11  84.8471
 50.8456  7237.12  84.3464
 51.0436  7066.52  83.7944
 51.2416  7040.6  83.313
 51.4396  6868.82  82.6919
 51.6376  6973.87  83.1446
 51.8356  7046.64  83.1878
 52.0336  7143.5  84.2974
 52.2316  6949.4  83.4928
 52.4296  6945.83  83.1753
 52.6276  6977.33  83.4732
 52.8256  6957.4  82.9088
 53.0236  7039.13  84.0482
 53.2216  6958.36  83.604
 53.4196  6883.28  83.058
 53.6176  6987.16  84.1874
 53.8156  6909.37  83.3843
 54.0136  6622.57  81.8106
 54.2116  6743  82.1697
 54.4096  6705.22  82.0217
 54.6076  6632.78  81.9131
 54.8056  6530.89  81.0658
 55.0036  6574.4  81.743
 55.2016  6707.13  82.0847
 55.3996  6412.73  80.2395
 55.5976  6468.33  80.7748
 55.7956  6452.83  80.4905
 55.9936  6573.44  81.3645
 56.1916  6347.12  79.9987
 56.3896  6319.3  79.8073
 56.5876  6271.1  80.0625
 56.7856  6404.25  80.3931
 56.9836  6416.53  80.2331
 57.1816  6482.13  81.0147
 57.3796  6180.22  78.9174
 57.5776  6297.55  79.5581
 57.7756  6300.94  80.2544
 57.9736  6180.6  79.1514
 58.1716  6103.79  78.9115
 58.3696  6039.33  78.2605
 58.5676  6071.52  77.9304
 58.7656  6005.99  78.1909
 58.9636  5928.2  77.7105
 59.1616  5892.19  77.6002
 59.3596  6035.3  77.8045
 59.5576  5971.91  77.4513
 59.7556  5883.67  77.2898
 59.9536  6025.27  78.1133
 60.1516  6006.72  78.8395
 60.1996  0.0000000E+00  0.0000000E+00