File: docs/examples/XRD/IS17_D/Data/IS17_D/17_Db_f00066.xye
# /beamlines/bl04/projects/cycle2025-II/20250340211-lsimonelli/DATA/IS17_D/17_Db_f00066.xye : mythproc.py merge -s 0.006 -l 0.5 -f /beamlines/bl04/inhouse/ff/FlatField/ff_20Nov2024rod8mm60s_17keV.raw -b True -c true -o xye /beamlines/bl04/projects/cycle2025-II/20250340211-lsimonelli/DATA/IS17_D/17_Db_00066.dat
# IsMon = [6768559, 6771857, 6774892]  IsPos = [-1.4999, -2.4884, -3.4988]
# Wave = 0.4962  CalPath /beamlines/bl04/projects/cycle2025-II/20250340211-lsimonelli/DATA/Align/Si_Pos1_25keV_f00001.cal
# Date = 2025-09-24_12:05:05 Dt = 4.8000  Bin = 0.0060  <imon> = 6771769 +/- 2586 (Min/Max) 6768559 / 6774892
# icurr 251.2776  mocoIn 1.7146E-05  mocoOut 0.8045  i15 7.09326e+06  imon 6.77177e+06  i7 4.3333  iEMpd_timer 4.8000  iEMpd_1 3.2814E-08  iEMpd_2 7.9194E-08  iEMpd_3 1.5925E-08  iEMpd_4 4.6764E-08  iEMhp_timer 4.8000  iEMhp_1 4.9099E-06  iEMhp_2 -2.4304E-08  iEMhp_3 -2.4216E-08  iEMhp_4 -2.0318E-08
#      9776
 1.7416  69807.1  264.349
 1.9396  47810.3  219.043
 2.1376  35286.5  188.184
 2.3356  31219  176.634
 2.5336  30478.2  175.14
 2.7316  26797.2  164.321
 2.9296  25415.9  160.187
 3.1276  25136.4  158.849
 3.3256  24387.6  156.121
 3.5236  25973.5  160.915
 3.7216  23697.9  154.93
 3.9196  23329.4  152.933
 4.1176  23182  152.249
 4.3156  24085.4  155.342
 4.5136  26992.7  163.425
 4.7116  27509.1  166.113
 4.9096  27001.7  164.011
 5.1076  26697.3  163.675
 5.3056  26677.1  163.32
 5.5036  26407.6  162.411
 5.7016  26886.5  163.836
 5.8996  27313.5  164.368
 6.0976  28153.8  168.277
 6.2956  28422.3  168.427
 6.4936  28932  169.132
 6.6916  29663.5  172.255
 6.8896  30290.4  173.907
 7.0876  31315.7  177.574
 7.2856  31047.4  175.864
 7.4836  31777.2  177.262
 7.6816  32623.2  180.13
 7.8796  33309.3  182.006
 8.0776  35686.8  189.374
 8.2756  37201.5  191.957
 8.4736  37306.2  192.041
 8.6716  36817.9  191.412
 8.8696  37778  194.414
 9.0676  36843.6  191.314
 9.2656  35599.4  188.754
 9.4636  34440.3  184.107
 9.6616  33792.1  183.099
 9.8596  33125.6  180.754
 10.0576  30955.2  175.392
 10.2556  30015  173.167
 10.4536  31658.6  177.423
 10.6516  31158.1  176.238
 10.8496  27605.2  165.282
 11.0476  27108.9  163.807
 11.2456  27622.5  165.904
 11.4436  27098  163.466
 11.6416  25896.1  160.146
 11.8396  24646  156.447
 12.0376  24159.6  154.524
 12.2356  24573.5  156.271
 12.4336  24357  155.123
 12.6316  23613  153.008
 12.8296  24010.5  153.886
 13.0276  24215  154.749
 13.2256  24147.3  154.9
 13.4236  24154.1  154.695
 13.6216  24484.9  155.754
 13.8196  27116.3  163.374
 14.0176  23634.3  153.083
 14.2156  23073.1  150.303
 14.4136  21951.1  147.974
 14.6116  21908  147.018
 14.8096  20947  143.749
 15.0076  20132.3  144.813
 15.2056  19202.3  137.24
 15.4036  18426.8  135.261
 15.6016  17947.3  132.588
 15.7996  17372.5  130.709
 15.9976  17238.5  133.085
 16.1956  17041.9  130.228
 16.3936  16505.6  127.359
 16.5916  16410.8  127.628
 16.7896  16708.4  128.847
 16.9876  16314.3  128.776
 17.1856  15933.5  125.656
 17.3836  15502.5  123.856
 17.5816  15217.6  123.19
 17.7796  15030.9  122.366
 17.9776  14843.8  122.366
 18.1756  15444.9  123.537
 18.3736  15257.4  123.281
 18.5716  14437.2  119.668
 18.7696  14393.2  119.057
 18.9676  14260.4  118.314
 19.1656  13846.9  117.153
 19.3636  13870  117.451
 19.5616  13758.5  117.138
 19.7596  14115.3  118.067
 19.9576  14570.6  119.99
 20.1556  13603.6  116.448
 20.3536  13418.7  115.046
 20.5516  13280.4  114.894
 20.7496  13005.1  113.634
 20.9476  13331.9  114.82
 21.1456  13040.2  113.87
 21.3436  12780  112.678
 21.5416  12798.2  112.777
 21.7396  12561  111.566
 21.9376  12505.4  111.09
 22.1356  12779  112.426
 22.3336  12437.3  111.192
 22.5316  12456.8  111.367
 22.7296  12217.5  109.662
 22.9276  12266.3  110.545
 23.1256  12561.2  111.342
 23.3236  12454  111.449
 23.5216  12520.1  111.383
 23.7196  12369.5  110.662
 23.9176  12510.8  111.05
 24.1156  12160  109.937
 24.3136  11896.7  109.544
 24.5116  12043.5  109.724
 24.7096  11804.2  108.451
 24.9076  11503  107.105
 25.1056  11195.8  106.115
 25.3036  11038.8  104.878
 25.5016  11046.9  104.949
 25.6996  11037.3  104.491
 25.8976  11085.9  105.152
 26.0956  11060.2  105.037
 26.2936  10888.1  103.882
 26.4916  11130.9  104.893
 26.6896  10710.5  103.195
 26.8876  10670.9  102.866
 27.0856  10342.8  101.325
 27.2836  10331.4  101.163
 27.4816  10339.7  101.144
 27.6796  10181.1  100.731
 27.8776  10649.7  102.881
 28.0756  10069.4  100.317
 28.2736  10154.7  100.328
 28.4716  9832.89  98.7771
 28.6696  9891.75  98.9205
 28.8676  9782.62  98.7192
 29.0656  9641.6  97.9777
 29.2636  9762.5  98.3829
 29.4616  9358.6  96.5015
 29.6596  9417.26  96.3747
 29.8576  9156.15  95.7007
 30.0556  9395.09  96.8183
 30.2536  9268.21  95.959
 30.4516  9549.1  97.0478
 30.6496  9441.53  96.2416
 30.8476  9347.67  96.201
 31.0456  9523.77  97.063
 31.2436  9415.32  95.7866
 31.4416  9224.54  94.9937
 31.6396  9588.05  96.8822
 31.8376  9499.75  95.9568
 32.0356  9206.8  95.0428
 32.2336  9217.11  94.5022
 32.4316  8929.85  93.405
 32.6296  8876.95  92.9695
 32.8276  8809.72  92.4007
 33.0256  8906.59  92.962
 33.2236  8952.97  93.3572
 33.4216  8810.08  92.2973
 33.6196  8760.05  92.3215
 33.8176  8799.74  92.7008
 34.0156  8697.29  91.7923
 34.2136  8727.24  91.9813
 34.4116  8476.76  90.8059
 34.6096  8639.9  91.5571
 34.8076  8479.46  91.1172
 35.0056  8514.46  90.9816
 35.2036  8664.66  92.0056
 35.4016  8372.32  90.3449
 35.5996  8410.1  90.5863
 35.7976  8262.09  90.0591
 35.9956  8463.36  90.7982
 36.1936  8424  90.4305
 36.3916  8249.81  89.6956
 36.5896  8394.4  91.4703
 36.7876  7975.26  88.5352
 36.9856  7951.07  88.4381
 37.1836  7962.21  87.6156
 37.3816  8042.87  88.4187
 37.5796  8134.57  90.6548
 37.7776  8112.79  88.9073
 37.9756  8123.54  88.8557
 38.1736  8253.79  89.7533
 38.3716  8072.05  89.0258
 38.5696  7985.73  88.918
 38.7676  7903.52  87.9793
 38.9656  8009  88.2034
 39.1636  7984.16  88.3443
 39.3616  8003.69  88.3758
 39.5596  7703.82  87.5308
 39.7576  7890.17  87.9659
 39.9556  7893.09  87.6191
 40.1536  7998.58  88.3957
 40.3516  8151.97  89.2561
 40.5496  8012.93  88.7514
 40.7476  8016.33  88.7779
 40.9456  8012.53  88.5092
 41.1436  8067.59  88.5335
 41.3416  7866.54  87.7485
 41.5396  7914.04  87.828
 41.7376  7988.48  88.4965
 41.9356  7850.12  87.591
 42.1336  8050.47  88.8372
 42.3316  7799.35  87.6476
 42.5296  7816.31  87.269
 42.7276  7832.45  87.5932
 42.9256  7943.44  88.0813
 43.1236  7746.1  87.0923
 43.3216  7816.51  87.2322
 43.5196  7753.36  86.9425
 43.7176  7754.73  87.3327
 43.9156  7469.03  85.631
 44.1136  7532.06  85.5456
 44.3116  7551.6  85.6659
 44.5096  7523.76  85.8215
 44.7076  7554.02  85.9215
 44.9056  7632.6  86.2424
 45.1036  7539.21  85.3397
 45.3016  7524.43  85.7586
 45.4996  7517.1  85.6561
 45.6976  7395.86  85.1303
 45.8956  7593.13  86.089
 46.0936  7631.47  86.3123
 46.2916  7487.05  85.4521
 46.4896  7534.31  85.7606
 46.6876  7327.24  85.2946
 46.8856  7402.94  84.9818
 47.0836  7464.84  85.5921
 47.2816  7323.93  84.6528
 47.4796  7496.34  85.7506
 47.6776  7406.45  86.2002
 47.8756  7415.58  85.414
 48.0736  7420.1  85.8992
 48.2716  7262.72  84.7942
 48.4696  7366.39  84.9815
 48.6676  7451.86  86.074
 48.8656  7506.23  86.1079
 49.0636  7413.88  85.5315
 49.2616  7187.41  84.2503
 49.4596  7323.61  84.5854
 49.6576  7365.68  85.0788
 49.8556  7294.25  84.6792
 50.0536  7196.8  84.5636
 50.2516  7282.48  85.2034
 50.4496  7226.1  84.5231
 50.6476  7290  84.5609
 50.8456  7262.79  84.5076
 51.0436  7009.47  83.4547
 51.2416  6997.9  83.0503
 51.4396  6945.7  83.1516
 51.6376  6989.33  83.2358
 51.8356  6995.4  82.8828
 52.0336  7015.92  83.5274
 52.2316  6841.98  82.8513
 52.4296  6837.24  82.5194
 52.6276  6857.05  82.7441
 52.8256  6912.67  82.6406
 53.0236  7006.01  83.8582
 53.2216  6957.87  83.6084
 53.4196  6850.38  82.8519
 53.6176  6947.1  83.959
 53.8156  6873.78  83.1669
 54.0136  6652.64  81.9813
 54.2116  6743.17  82.1863
 54.4096  6743.93  82.2469
 54.6076  6641.09  81.9692
 54.8056  6592.67  81.4569
 55.0036  6544.54  81.5485
 55.2016  6723.51  82.1601
 55.3996  6355.97  79.8835
 55.5976  6421.19  80.4902
 55.7956  6448.31  80.4707
 55.9936  6510.57  80.9888
 56.1916  6347.71  79.9925
 56.3896  6277.18  79.5349
 56.5876  6339.78  80.4964
 56.7856  6252.07  79.4332
 56.9836  6369.06  79.9401
 57.1816  6452.74  80.82
 57.3796  6262.17  79.4424
 57.5776  6253.81  79.2649
 57.7756  6116.35  79.0588
 57.9736  6182.24  79.159
 58.1716  6126.86  79.0618
 58.3696  6001.67  78.0129
 58.5676  6014.57  77.5713
 58.7656  5924.92  77.6562
 58.9636  6014.9  78.2707
 59.1616  5875.87  77.4898
 59.3596  5977.42  77.4172
 59.5576  6077.26  78.1177
 59.7556  5798.91  76.7175
 59.9536  6072.48  78.4049
 60.1516  5951.48  78.4622
 60.1996  0.0000000E+00  0.0000000E+00