File: docs/examples/XRD/IS17_D/Data/IS17_D/17_Da_f00111.xye
# /beamlines/bl04/projects/cycle2025-II/20250340211-lsimonelli/DATA/IS17_D/17_Da_f00111.xye : mythproc.py merge -s 0.006 -l 0.5 -f /beamlines/bl04/inhouse/ff/FlatField/ff_20Nov2024rod8mm60s_17keV.raw -b True -c true -o xye /beamlines/bl04/projects/cycle2025-II/20250340211-lsimonelli/DATA/IS17_D/17_Da_00111.dat
# IsMon = [6759125, 6762567, 6758940]  IsPos = [-1.4999, -2.4885, -3.4986]
# Wave = 0.4962  CalPath /beamlines/bl04/projects/cycle2025-II/20250340211-lsimonelli/DATA/Align/Si_Pos1_25keV_f00001.cal
# Date = 2025-09-25_00:30:44 Dt = 4.8000  Bin = 0.0060  <imon> = 6760211 +/- 1668 (Min/Max) 6758940 / 6762567
# icurr 250.0765  mocoIn 1.7066E-05  mocoOut 0.8002  i15 7.07782e+06  imon 6.76021e+06  i7 8.0000  iEMpd_timer 4.8000  iEMpd_1 3.4418E-08  iEMpd_2 7.9267E-08  iEMpd_3 1.7353E-08  iEMpd_4 4.7736E-08  iEMhp_timer 4.8000  iEMhp_1 4.8856E-06  iEMhp_2 -2.5757E-08  iEMhp_3 -2.4892E-08  iEMhp_4 -2.1365E-08
#      9776
 1.7416  71005.7  266.567
 1.9396  47109.9  217.418
 2.1376  34023.1  184.756
 2.3356  30698.5  175.128
 2.5336  28765.5  170.121
 2.7316  27511.8  166.47
 2.9296  26539.4  163.672
 3.1276  25617.3  160.342
 3.3256  25044.9  158.188
 3.5236  26767.7  163.498
 3.7216  24328.8  156.997
 3.9196  23669.1  154.066
 4.1176  23378.7  152.887
 4.3156  24690.2  157.291
 4.5136  26942.5  163.267
 4.7116  28178.4  168.132
 4.9096  27363.4  165.111
 5.1076  27044.5  164.733
 5.3056  27377.2  165.361
 5.5036  26952.9  164.096
 5.7016  27355.6  165.264
 5.8996  28084.3  166.643
 6.0976  28764.3  170.119
 6.2956  29541.7  171.722
 6.4936  30222.7  172.874
 6.6916  30634.8  175.061
 6.8896  31294.9  176.79
 7.0876  32536.2  181.008
 7.2856  32284  179.354
 7.4836  32733.7  179.92
 7.6816  33485.6  182.518
 7.8796  35090.9  186.829
 8.0776  36571.7  191.725
 8.2756  38262.1  194.704
 8.4736  38723.1  195.66
 8.6716  38189  194.947
 8.8696  38166.7  195.395
 9.0676  37758.6  193.706
 9.2656  36545.6  191.264
 9.4636  35656.8  187.32
 9.6616  35038.3  186.476
 9.8596  33802.7  182.589
 10.0576  31947.2  178.172
 10.2556  30759.1  175.273
 10.4536  29618.5  171.595
 10.6516  28755.1  169.264
 10.8496  27879.5  166.1
 11.0476  27277.1  164.261
 11.2456  26451.8  162.335
 11.4436  26272.5  160.958
 11.6416  27951.7  166.404
 11.8396  25341.8  158.649
 12.0376  25322.3  158.198
 12.2356  24608.9  156.402
 12.4336  24743.1  156.344
 12.6316  24282  155.155
 12.8296  24467.7  155.381
 13.0276  25223.1  157.944
 13.2256  25499.2  159.178
 13.4236  25286.3  158.279
 13.6216  25070.1  157.617
 13.8196  25134.4  157.582
 14.0176  24809.9  156.847
 14.2156  24313.2  154.302
 14.4136  23015.2  151.517
 14.6116  22690.8  149.643
 14.8096  22068.9  147.567
 15.0076  20905.8  147.473
 15.2056  20525.1  141.898
 15.4036  19544.1  139.316
 15.6016  19053.1  136.618
 15.7996  18637.4  135.409
 15.9976  17943.3  135.853
 16.1956  17219  130.945
 16.3936  17140.1  129.807
 16.5916  16826.8  129.259
 16.7896  16751.4  129.026
 16.9876  16630.5  130.029
 17.1856  16478  127.765
 17.3836  16080.9  126.114
 17.5816  15384.2  123.847
 17.7796  15061.5  122.468
 17.9776  14824.1  122.304
 18.1756  15030.5  121.85
 18.3736  14776  121.322
 18.5716  14630.3  120.471
 18.7696  14676.2  120.23
 18.9676  14342.1  118.66
 19.1656  14201.7  118.637
 19.3636  14210.5  118.873
 19.5616  14100.4  118.583
 19.7596  14175.5  118.308
 19.9576  14321.2  118.967
 20.1556  15207.4  123.134
 20.3536  14466.7  119.45
 20.5516  13950.6  117.765
 20.7496  13670.6  116.514
 20.9476  13418.1  115.186
 21.1456  13449.9  115.651
 21.3436  13263.1  114.8
 21.5416  13182  114.443
 21.7396  13156.7  114.176
 21.9376  13016.7  113.334
 22.1356  13048.7  113.476
 22.3336  13041.2  113.844
 22.5316  13040.1  113.95
 22.7296  13096.5  113.537
 22.9276  12875.3  113.265
 23.1256  12908  112.884
 23.3236  13001.8  113.866
 23.5216  12808.1  112.663
 23.7196  12679.8  112.046
 23.9176  12625.8  111.559
 24.1156  12530.7  111.619
 24.3136  12083.3  110.389
 24.5116  12224.4  110.554
 24.7096  11781.4  108.348
 24.9076  11545.9  107.287
 25.1056  11510.5  107.302
 25.3036  11356  106.372
 25.5016  11422  106.716
 25.6996  11290.1  105.682
 25.8976  11217.6  105.777
 26.0956  11192.4  105.684
 26.2936  11099.3  104.881
 26.4916  11143.6  104.972
 26.6896  10868.3  103.966
 26.8876  10873.8  103.844
 27.0856  10872.8  103.847
 27.2836  10639.5  102.826
 27.4816  10373.2  101.306
 27.6796  10448.5  102.049
 27.8776  10448.3  101.907
 28.0756  10361.6  101.767
 28.2736  10307.7  101.084
 28.4716  10215.6  100.677
 28.6696  10183.4  100.363
 28.8676  10075  100.184
 29.0656  9903.3  99.3046
 29.2636  9945.24  99.2186
 29.4616  9814.99  98.832
 29.6596  9786.1  98.2518
 29.8576  9711.32  98.5669
 30.0556  9682.37  98.2955
 30.2536  9836.53  98.8664
 30.4516  9621.59  97.4445
 30.6496  9586.9  96.9914
 30.8476  9716.89  98.0924
 31.0456  9574.9  97.3371
 31.2436  9517.22  96.3057
 31.4416  9333.73  95.5394
 31.6396  9295.37  95.3901
 31.8376  9384.83  95.3948
 32.0356  9399.65  96.0379
 32.2336  9199.81  94.3974
 32.4316  9216.03  94.8927
 32.6296  9230.26  94.736
 32.8276  9173.87  94.2866
 33.0256  9013.7  93.5381
 33.2236  9036.8  93.8049
 33.4216  9210.99  94.391
 33.6196  9080.35  94.0078
 33.8176  9098.71  94.2736
 34.0156  8870.2  92.6937
 34.2136  8949.62  93.1515
 34.4116  8867.22  92.8749
 34.6096  8802.22  92.4082
 34.8076  8743.76  92.5095
 35.0056  8917.04  93.1113
 35.2036  8805.46  92.7334
 35.4016  8755.24  92.3964
 35.5996  8550.26  91.3445
 35.7976  8587.47  91.8226
 35.9956  8607.46  91.5684
 36.1936  8460.04  90.6506
 36.3916  8471.04  90.885
 36.5896  8420.69  92.0661
 36.7876  8476.83  91.2916
 36.9856  8285.87  90.2894
 37.1836  8339.57  89.6765
 37.3816  8380.95  90.272
 37.5796  8235.92  91.2128
 37.7776  8142.43  89.074
 37.9756  8147.77  88.9866
 38.1736  8392.64  90.5153
 38.3716  8125.97  89.3406
 38.5696  8149.36  89.8421
 38.7676  7861.57  87.7442
 38.9656  8071.43  88.541
 39.1636  8046.6  88.6344
 39.3616  7996.62  88.3235
 39.5596  7953.18  88.9429
 39.7576  8000.27  88.572
 39.9556  8075.24  88.6208
 40.1536  8097.58  88.9536
 40.3516  8107.63  89.0998
 40.5496  8183.56  89.4834
 40.7476  8228.82  89.9506
 40.9456  8207.91  89.579
 41.1436  8157.44  89.0246
 41.3416  8180.24  89.4879
 41.5396  8063.79  88.6589
 41.7376  7865.7  87.8267
 41.9356  7975.05  88.2923
 42.1336  8030.52  88.7442
 42.3316  7952.7  88.5141
 42.5296  7914.29  87.8158
 42.7276  8037.22  88.7391
 42.9256  7934.3  88.0374
 43.1236  7958.93  88.2823
 43.3216  7949.13  88.0827
 43.5196  7821.69  87.3306
 43.7176  7831.41  87.7835
 43.9156  7800.69  87.5199
 44.1136  7684.38  86.4123
 44.3116  7677.65  86.3963
 44.5096  7734.77  87.0237
 44.7076  7638.27  86.4048
 44.9056  7743.32  86.8769
 45.1036  7605.96  85.7266
 45.3016  7622.84  86.3251
 45.4996  7400.43  84.9971
 45.6976  7393.69  85.1353
 45.8956  7548.64  85.8248
 46.0936  7579.72  86.0085
 46.2916  7494.44  85.499
 46.4896  7509.38  85.6105
 46.6876  7504.6  86.3106
 46.8856  7301.42  84.5087
 47.0836  7224.09  84.2007
 47.2816  7209.39  83.9888
 47.4796  7333.08  84.8182
 47.6776  7234.9  85.1968
 47.8756  7231.35  84.3455
 48.0736  7183.08  84.4979
 48.2716  6972.48  83.0882
 48.4696  7186.83  83.9489
 48.6676  7119.38  84.1418
 48.8656  7140.96  83.9945
 49.0636  7159.76  84.0546
 49.2616  7001.68  83.1587
 49.4596  7118.69  83.4002
 49.6576  7028.59  83.1064
 49.8556  6938.01  82.5852
 50.0536  6949.87  83.1074
 50.2516  6929.89  83.0922
 50.4496  6818.15  82.0944
 50.6476  6876.49  82.1347
 50.8456  6896.13  82.3414
 51.0436  6729  81.7731
 51.2416  6693.42  81.2367
 51.4396  6663.36  81.4372
 51.6376  6762.33  81.8715
 51.8356  6760.37  81.4835
 52.0336  6604.42  81.062
 52.2316  6620.24  81.5049
 52.4296  6647.21  81.355
 52.6276  6526.3  80.7383
 52.8256  6640.97  80.9835
 53.0236  6471.55  80.5877
 53.2216  6456.16  80.5276
 53.4196  6333.26  79.6794
 53.6176  6429.4  80.7574
 53.8156  6425.1  80.4001
 54.0136  6433.64  80.6407
 54.2116  6433.58  80.2994
 54.4096  6518.34  80.8662
 54.6076  6278.72  79.7238
 54.8056  6330.88  79.8417
 55.0036  6263.8  79.8114
 55.2016  6384.61  80.1174
 55.3996  6369.53  79.9934
 55.5976  6213.79  79.1908
 55.7956  6412.16  80.2583
 55.9936  6276.12  79.5441
 56.1916  6310.74  79.782
 56.3896  6346.13  79.9895
 56.5876  6310.74  80.3281
 56.7856  6271.7  79.5584
 56.9836  6225.22  79.0464
 57.1816  6298.78  79.8931
 57.3796  6298.33  79.6584
 57.5776  6206.98  79.0338
 57.7756  6213.28  79.7202
 57.9736  6175.21  79.1436
 58.1716  6169.48  79.3534
 58.3696  6213.03  79.3702
 58.5676  6279.85  79.2665
 58.7656  6258.65  79.818
 58.9636  6208.62  79.5268
 59.1616  6157.64  79.3272
 59.3596  6323.17  79.6493
 59.5576  6462.53  80.5819
 59.7556  6360.19  80.3706
 59.9536  6352.94  80.2211
 60.1516  6267.51  80.5446
 60.1996  0.0000000E+00  0.0000000E+00