File: docs/examples/opeando_xrd/IS17_D/Data/IS17_D/17_Da_f00036.xye
# /beamlines/bl04/projects/cycle2025-II/20250340211-lsimonelli/DATA/IS17_D/17_Da_f00036.xye : mythproc.py merge -s 0.006 -l 0.5 -f /beamlines/bl04/inhouse/ff/FlatField/ff_20Nov2024rod8mm60s_17keV.raw -b True -c true -o xye /beamlines/bl04/projects/cycle2025-II/20250340211-lsimonelli/DATA/IS17_D/17_Da_00036.dat
# IsMon = [6744571, 6746728, 6741809]  IsPos = [-1.5000, -2.4884, -3.4986]
# Wave = 0.4962  CalPath /beamlines/bl04/projects/cycle2025-II/20250340211-lsimonelli/DATA/Align/Si_Pos1_25keV_f00001.cal
# Date = 2025-09-24_03:35:38 Dt = 4.8000  Bin = 0.0060  <imon> = 6744369 +/- 2013 (Min/Max) 6741809 / 6746728
# icurr 248.7814  mocoIn 1.6979E-05  mocoOut 0.7970  i15 7.06127e+06  imon 6.74437e+06  i7 8.3333  iEMpd_timer 4.8000  iEMpd_1 3.5249E-08  iEMpd_2 7.6611E-08  iEMpd_3 1.6329E-08  iEMpd_4 4.8887E-08  iEMhp_timer 4.8000  iEMhp_1 4.8634E-06  iEMhp_2 -2.5359E-08  iEMhp_3 -2.3310E-08  iEMhp_4 -2.2544E-08
#      9776
 1.7416  70296.6  265.207
 1.9396  46001.6  214.817
 2.1376  32426.2  180.351
 2.3356  28593.5  169.001
 2.5336  26910.1  164.528
 2.7316  25256  159.489
 2.9296  23899.8  155.312
 3.1276  23476.5  153.48
 3.3256  23173.3  152.157
 3.5236  25231.6  158.575
 3.7216  22969.7  152.547
 3.9196  22269  149.445
 4.1176  22316.3  149.372
 4.3156  23562.8  153.662
 4.5136  26105.9  160.714
 4.7116  26879.4  164.212
 4.9096  26150.1  161.41
 5.1076  25888.2  161.169
 5.3056  26462.8  162.573
 5.5036  25956.9  160.981
 5.7016  26386.4  162.311
 5.8996  26937.4  163.225
 6.0976  27654  166.8
 6.2956  28047.5  167.327
 6.4936  28548  168.009
 6.6916  29042.4  170.452
 6.8896  29895.5  172.799
 7.0876  30918.3  176.367
 7.2856  30552.1  174.472
 7.4836  30979  175.034
 7.6816  31720.9  177.641
 7.8796  33056.2  181.338
 8.0776  34434.4  186.047
 8.2756  36221.9  189.45
 8.4736  36439.5  189.82
 8.6716  35968.3  189.197
 8.8696  35716.1  189.018
 9.0676  34979.9  186.443
 9.2656  33880.9  184.163
 9.4636  33470.7  181.495
 9.6616  32690.9  180.125
 9.8596  31434  176.064
 10.0576  29957.1  172.531
 10.2556  28731.1  169.388
 10.4536  27891.7  166.51
 10.6516  27157.4  164.488
 10.8496  26203.8  161.026
 11.0476  25610.9  159.218
 11.2456  24843.9  157.328
 11.4436  25117  157.385
 11.6416  25724.9  159.636
 11.8396  23635.9  153.214
 12.0376  23601.6  152.758
 12.2356  22949.6  151.009
 12.4336  23003.6  150.75
 12.6316  22794.5  150.324
 12.8296  23128.6  151.07
 13.0276  23588.3  152.739
 13.2256  23618.9  153.199
 13.4236  23644.8  153.049
 13.6216  23332.9  152.055
 13.8196  23594.5  152.679
 14.0176  23130.3  151.454
 14.2156  22474  148.353
 14.4136  21443.3  146.252
 14.6116  21322.9  145.062
 14.8096  20853.2  143.448
 15.0076  19468.7  142.308
 15.2056  19315.7  137.662
 15.4036  18190.8  134.403
 15.6016  17744  131.851
 15.7996  17344.8  130.635
 15.9976  16764.2  131.319
 16.1956  16132.5  126.746
 16.3936  15996.9  125.403
 16.5916  15740.6  125.015
 16.7896  15786.7  125.255
 16.9876  15563.9  125.79
 17.1856  15433.6  123.64
 17.3836  14829.8  121.101
 17.5816  14389  119.768
 17.7796  14300.3  119.333
 17.9776  14060.8  119.112
 18.1756  14048.4  117.799
 18.3736  13904  117.687
 18.5716  13693.4  116.548
 18.7696  13777.7  116.494
 18.9676  13397.3  114.683
 19.1656  13492.3  115.629
 19.3636  13447.6  115.639
 19.5616  13153.6  114.539
 19.7596  13448.8  115.23
 19.9576  13727.3  116.473
 20.1556  14364.4  119.675
 20.3536  13449.7  115.18
 20.5516  13026.9  113.798
 20.7496  12678.3  112.111
 20.9476  12581.6  111.534
 21.1456  12711.5  112.431
 21.3436  12358.5  110.813
 21.5416  12316.6  110.619
 21.7396  12319.2  110.48
 21.9376  12127.4  109.39
 22.1356  12280.1  110.23
 22.3336  12260.2  110.399
 22.5316  12191.4  110.183
 22.7296  12348.3  110.264
 22.9276  12077.3  109.701
 23.1256  12386.3  110.587
 23.3236  12357.6  110.998
 23.5216  12246.7  110.164
 23.7196  11843.1  108.496
 23.9176  11988.2  108.7
 24.1156  11758.5  108.125
 24.3136  11435.2  107.384
 24.5116  11426.2  106.877
 24.7096  11140  105.353
 24.9076  10974.5  104.591
 25.1056  10679.9  103.632
 25.3036  10725.3  103.376
 25.5016  10749.3  103.531
 25.6996  10678.6  102.779
 25.8976  10594.7  102.8
 26.0956  10584.5  102.778
 26.2936  10577.1  102.383
 26.4916  10622.8  102.495
 26.6896  10213.7  100.789
 26.8876  10233.3  100.739
 27.0856  10103.2  100.159
 27.2836  10028.2  99.8317
 27.4816  9861.39  98.7748
 27.6796  9771.51  98.6888
 27.8776  9813.6  98.7618
 28.0756  9806.53  99.0045
 28.2736  9728.76  98.2047
 28.4716  9459.91  96.8864
 28.6696  9606.14  97.4815
 28.8676  9516.09  97.3644
 29.0656  9284.52  96.1515
 29.2636  9371.6  96.3918
 29.4616  9263.49  96.0221
 29.6596  9373.44  96.1622
 29.8576  8997.94  94.882
 30.0556  9158.82  95.6032
 30.2536  9221.46  95.7271
 30.4516  9142.59  94.9879
 30.6496  9103.35  94.5152
 30.8476  8952.8  94.1621
 31.0456  9028.57  94.5184
 31.2436  8989.98  93.5981
 31.4416  8873.43  93.1479
 31.6396  8864.53  93.1485
 31.8376  8830.24  92.516
 32.0356  8814.91  92.993
 32.2336  8638.05  91.4696
 32.4316  8659.92  91.9833
 32.6296  8631.37  91.6739
 32.8276  8703.96  91.8338
 33.0256  8598.18  91.3475
 33.2236  8472.96  90.8248
 33.4216  8622.51  91.3302
 33.6196  8549.73  91.2188
 33.8176  8460.44  90.8921
 34.0156  8384.67  90.1175
 34.2136  8395.3  90.2161
 34.4116  8326.7  89.9944
 34.6096  8327.13  89.8788
 34.8076  8096.31  89.0207
 35.0056  8231.77  89.4608
 35.2036  8239.08  89.7042
 35.4016  8236.86  89.6208
 35.5996  8049.06  88.6246
 35.7976  7938.33  88.2738
 35.9956  8212.36  89.4453
 36.1936  8026.32  88.2981
 36.3916  7997.6  88.3078
 36.5896  7995.96  89.2519
 36.7876  7940.16  88.3637
 36.9856  7878.07  88.0438
 37.1836  7843.63  86.9726
 37.3816  7985.24  88.1111
 37.5796  7770.04  88.6005
 37.7776  7717.32  86.718
 37.9756  7742.99  86.7431
 38.1736  7910.57  87.878
 38.3716  7774.74  87.3895
 38.5696  7791.05  87.8431
 38.7676  7571.08  86.1027
 38.9656  7594.65  85.8819
 39.1636  7541.45  85.8442
 39.3616  7669.26  86.4951
 39.5596  7579.92  86.8229
 39.7576  7575.16  86.1861
 39.9556  7618.92  86.0816
 40.1536  7730.1  86.9104
 40.3516  7733.68  87.0415
 40.5496  7675.38  86.8591
 40.7476  7722.6  87.1224
 40.9456  7767.23  87.1392
 41.1436  7762.49  86.8391
 41.3416  7625.68  86.4033
 41.5396  7616.27  86.1583
 41.7376  7620.64  86.445
 41.9356  7544.07  85.8689
 42.1336  7563.94  86.1251
 42.3316  7522.25  86.0876
 42.5296  7585.11  85.9684
 42.7276  7500.82  85.7262
 42.9256  7613.77  86.2425
 43.1236  7462.47  85.4844
 43.3216  7500.46  85.4581
 43.5196  7364.39  84.7388
 43.7176  7445.8  85.5928
 43.9156  7328.42  84.8297
 44.1136  7403.04  84.8217
 44.3116  7367.01  84.6322
 44.5096  7309.43  84.5956
 44.7076  7313.66  84.553
 44.9056  7254.05  84.0858
 45.1036  7175.18  83.2642
 45.3016  7210.3  83.9581
 45.4996  7207.78  83.8832
 45.6976  7066.17  83.2314
 45.8956  7129.56  83.4053
 46.0936  7193.79  83.5407
 46.2916  7094.07  83.1805
 46.4896  7046.82  82.9268
 46.6876  6881.03  82.6416
 46.8856  6852.16  81.8735
 47.0836  6932.2  82.4696
 47.2816  6792.96  81.5232
 47.4796  6723.91  81.206
 47.6776  6825.24  82.7497
 47.8756  6872.49  82.2252
 48.0736  6783.63  82.1123
 48.2716  6634.06  81.0498
 48.4696  6773.3  81.4931
 48.6676  6740.64  81.872
 48.8656  6738.67  81.5931
 49.0636  6773.67  81.7474
 49.2616  6564.99  80.5126
 49.4596  6637.02  80.5349
 49.6576  6558.81  80.2713
 49.8556  6635.53  80.7662
 50.0536  6564.95  80.773
 50.2516  6533.34  80.7021
 50.4496  6574.55  80.6159
 50.6476  6542.15  80.1106
 50.8456  6480.31  79.8192
 51.0436  6309.03  79.184
 51.2416  6427.68  79.6138
 51.4396  6152.11  78.2599
 51.6376  6254.27  78.7346
 51.8356  6296.47  78.6434
 52.0336  6172.7  78.365
 52.2316  6071.76  78.0612
 52.4296  6234.08  78.7963
 52.6276  6100.36  78.0636
 52.8256  6316.97  78.9918
 53.0236  6056.68  77.9548
 53.2216  6049.83  77.9233
 53.4196  6059.9  77.9331
 53.6176  5992.97  77.966
 53.8156  6062.87  78.1005
 54.0136  6164.68  78.9396
 54.2116  6049.3  77.8622
 54.4096  6015.99  77.6868
 54.6076  5958.08  77.6613
 54.8056  6007.88  77.7788
 55.0036  5956.15  77.701
 55.2016  5966.69  77.3799
 55.3996  6010.49  77.7056
 55.5976  5899.04  77.1662
 55.7956  5981.34  77.5154
 55.9936  5887.97  77.0387
 56.1916  5915.82  77.2445
 56.3896  5975.9  77.6268
 56.5876  5904.75  77.6997
 56.7856  5907.45  77.214
 56.9836  5778.13  76.1548
 57.1816  5938.38  77.574
 57.3796  5870.21  76.9004
 57.5776  5947.35  77.3593
 57.7756  5774.05  76.8469
 57.9736  5741.31  76.3151
 58.1716  5820.92  77.078
 58.3696  5933.35  77.5679
 58.5676  5888.29  76.7638
 58.7656  5883.56  77.3945
 58.9636  5996.26  78.1645
 59.1616  5829.31  77.1968
 59.3596  6029.33  77.7854
 59.5576  5912.09  77.0812
 59.7556  5811.67  76.8341
 59.9536  5820.78  76.795
 60.1516  5931.35  78.3624
 60.1996  0.0000000E+00  0.0000000E+00