File: docs/examples/opeando_xrd/IS17_D/Data/IS17_D/17_Db_f00040.xye
# /beamlines/bl04/projects/cycle2025-II/20250340211-lsimonelli/DATA/IS17_D/17_Db_f00040.xye : mythproc.py merge -s 0.006 -l 0.5 -f /beamlines/bl04/inhouse/ff/FlatField/ff_20Nov2024rod8mm60s_17keV.raw -b True -c true -o xye /beamlines/bl04/projects/cycle2025-II/20250340211-lsimonelli/DATA/IS17_D/17_Db_00040.dat
# IsMon = [6756230, 6756567, 6757432]  IsPos = [-1.4999, -2.4885, -3.4988]
# Wave = 0.4962  CalPath /beamlines/bl04/projects/cycle2025-II/20250340211-lsimonelli/DATA/Align/Si_Pos1_25keV_f00001.cal
# Date = 2025-09-24_04:50:02 Dt = 4.8000  Bin = 0.0060  <imon> = 6756743 +/- 506 (Min/Max) 6756230 / 6757432
# icurr 250.2604  mocoIn 1.7079E-05  mocoOut 0.8013  i15 7.07558e+06  imon 6.75674e+06  i7 3.6667  iEMpd_timer 4.8000  iEMpd_1 3.5186E-08  iEMpd_2 7.9112E-08  iEMpd_3 1.6504E-08  iEMpd_4 4.7486E-08  iEMhp_timer 4.8000  iEMhp_1 4.8893E-06  iEMhp_2 -2.5814E-08  iEMhp_3 -2.3488E-08  iEMhp_4 -2.1507E-08
#      9776
 1.7416  71331.5  267.166
 1.9396  49111.7  221.959
 2.1376  36150  190.435
 2.3356  32244.7  179.477
 2.5336  30225.5  174.378
 2.7316  27739.8  167.172
 2.9296  26592.5  163.837
 3.1276  25703.3  160.606
 3.3256  24985.2  158.01
 3.5236  26535.9  162.782
 3.7216  24277.9  156.824
 3.9196  23626.1  153.899
 4.1176  23517.3  153.335
 4.3156  24323.8  156.109
 4.5136  26808.1  162.867
 4.7116  27691.7  166.667
 4.9096  26861.7  163.586
 5.1076  26616.6  163.414
 5.3056  26567.4  162.988
 5.5036  26429.5  162.56
 5.7016  26646.2  163.101
 5.8996  27206.1  164.045
 6.0976  28013.5  167.865
 6.2956  28020.1  167.234
 6.4936  29034.2  169.436
 6.6916  29347.2  171.32
 6.8896  29968.8  172.985
 7.0876  30932.9  176.486
 7.2856  30731.1  174.96
 7.4836  31280.3  175.865
 7.6816  31916  178.154
 7.8796  32465.5  179.698
 8.0776  34054.2  185.013
 8.2756  35481.1  187.488
 8.4736  36361.5  189.607
 8.6716  35378.6  187.648
 8.8696  36031.1  189.857
 9.0676  35305.4  187.28
 9.2656  34082.6  184.68
 9.4636  33270.8  180.96
 9.6616  32372.2  179.214
 9.8596  32009.2  177.664
 10.0576  29758.8  171.97
 10.2556  29152.6  170.637
 10.4536  27934.9  166.654
 10.6516  27366.5  165.152
 10.8496  26063.2  160.595
 11.0476  25150.7  157.733
 11.2456  24611  156.593
 11.4436  24522.2  155.509
 11.6416  26197.4  161.079
 11.8396  23943  154.186
 12.0376  23228.6  151.507
 12.2356  22935.5  150.997
 12.4336  23104.3  151.084
 12.6316  22941  150.796
 12.8296  22958.3  150.491
 13.0276  23175.1  151.39
 13.2256  23705.5  153.48
 13.4236  23547.4  152.739
 13.6216  23859.1  153.741
 13.8196  26115.3  160.297
 14.0176  22925  150.777
 14.2156  22573.7  148.665
 14.4136  21489.2  146.405
 14.6116  21105.4  144.306
 14.8096  20393.8  141.827
 15.0076  19557.8  142.719
 15.2056  18525.3  134.813
 15.4036  17723.4  132.669
 15.6016  17342.4  130.347
 15.7996  17046.3  129.495
 15.9976  16710.7  131.046
 16.1956  16342.7  127.525
 16.3936  16341  126.709
 16.5916  15651.1  124.64
 16.7896  15913.6  125.736
 16.9876  15642.9  126.091
 17.1856  15647.8  124.513
 17.3836  15225.4  122.734
 17.5816  14570  120.528
 17.7796  14408.4  119.789
 17.9776  13813.6  118.043
 18.1756  13924.1  117.297
 18.3736  13661.7  116.657
 18.5716  13658.8  116.403
 18.7696  13579.2  115.634
 18.9676  13461.6  114.943
 19.1656  13139.7  114.123
 19.3636  13176.5  114.476
 19.5616  13145.3  114.501
 19.7596  13364.3  114.867
 19.9576  13441.6  115.234
 20.1556  14019  118.217
 20.3536  13661.8  116.087
 20.5516  13023.8  113.781
 20.7496  12582  111.77
 20.9476  12621.3  111.71
 21.1456  12473.1  111.37
 21.3436  12441  111.179
 21.5416  12238.5  110.28
 21.7396  12105.5  109.523
 21.9376  12044.4  109.026
 22.1356  12111.9  109.452
 22.3336  11940.9  108.938
 22.5316  11917.7  108.941
 22.7296  11903.5  108.262
 22.9276  11738.4  108.15
 23.1256  11848.8  108.154
 23.3236  12467.7  111.51
 23.5216  12198.4  109.942
 23.7196  12041.1  109.179
 23.9176  12129.8  109.332
 24.1156  11877.4  108.642
 24.3136  11404.7  107.245
 24.5116  11680.2  108.043
 24.7096  11159.2  105.438
 24.9076  11106.5  105.228
 25.1056  10834.7  104.123
 25.3036  10685.9  103.185
 25.5016  10651.6  103.051
 25.6996  10549.4  102.15
 25.8976  10533.6  102.498
 26.0956  10400.8  101.867
 26.2936  10463.4  101.839
 26.4916  10733.8  102.998
 26.6896  10395  101.66
 26.8876  10397.4  101.526
 27.0856  10110.8  100.143
 27.2836  10142.2  100.23
 27.4816  9927.5  99.1055
 27.6796  9692.19  98.27
 27.8776  10032.5  99.8412
 28.0756  9640.82  98.1624
 28.2736  9697.74  98.0446
 28.4716  9374.07  96.4416
 28.6696  9541.41  97.1514
 28.8676  9371.07  96.6232
 29.0656  9389.71  96.695
 29.2636  9373.86  96.3275
 29.4616  8886.19  94.0429
 29.6596  9105.4  94.7751
 29.8576  8869.15  94.1982
 30.0556  8958.01  94.5459
 30.2536  8982.65  94.4797
 30.4516  9073.67  94.6066
 30.6496  9111.55  94.5437
 30.8476  9115.99  94.9907
 31.0456  9212.62  95.4657
 31.2436  9170.08  94.5122
 31.4416  8928.21  93.4433
 31.6396  9011.66  93.9155
 31.8376  8866.68  92.7148
 32.0356  8837.27  93.079
 32.2336  8834.72  92.5123
 32.4316  8578.89  91.5526
 32.6296  8621.34  91.5437
 32.8276  8510.98  90.8261
 33.0256  8544.81  91.0593
 33.2236  8683.21  91.9477
 33.4216  8539.19  90.873
 33.6196  8445.5  90.6585
 33.8176  8457.13  90.8761
 34.0156  8454.44  90.5042
 34.2136  8504.49  90.7975
 34.4116  8180.09  89.2058
 34.6096  8349.96  90.0074
 34.8076  8164.71  89.4067
 35.0056  8177.69  89.1527
 35.2036  8417.94  90.6789
 35.4016  8168.35  89.2414
 35.5996  8072.8  88.752
 35.7976  8051.91  88.8986
 35.9956  8350.78  90.1892
 36.1936  8153.44  88.9701
 36.3916  7976.31  88.1899
 36.5896  7976.18  89.6169
 36.7876  7640.37  86.6676
 36.9856  7648.63  86.7403
 37.1836  7644.2  85.8583
 37.3816  7802.75  87.0981
 37.5796  7802.34  88.7839
 37.7776  7842.54  87.4068
 37.9756  7852.23  87.3478
 38.1736  7794.08  87.2169
 38.3716  7799.21  87.5143
 38.5696  7639.46  86.9789
 38.7676  7618.25  86.3766
 38.9656  7636.54  86.1059
 39.1636  7710.05  86.7774
 39.3616  7635.66  86.3183
 39.5596  7514.2  86.4359
 39.7576  7540.4  85.9957
 39.9556  7637.97  86.1941
 40.1536  7732.51  86.9163
 40.3516  7669.04  86.5748
 40.5496  7746.91  87.0536
 40.7476  7719.72  87.1154
 40.9456  7757.41  87.085
 41.1436  7851.62  87.3385
 41.3416  7604.48  86.2798
 41.5396  7602.71  86.0812
 41.7376  7662.53  86.6762
 41.9356  7451  85.328
 42.1336  7653.52  86.6219
 42.3316  7496.94  85.9321
 42.5296  7612.45  86.1194
 42.7276  7655.09  86.5968
 42.9256  7556.61  85.9146
 43.1236  7503.27  85.7059
 43.3216  7556.02  85.8695
 43.5196  7554.38  85.8248
 43.7176  7452.69  85.6069
 43.9156  7199.79  84.0833
 44.1136  7259.19  83.9905
 44.3116  7340.85  84.4704
 44.5096  7283.22  84.4469
 44.7076  7257.65  84.2298
 44.9056  7468.23  85.3042
 45.1036  7401.25  84.5559
 45.3016  7414.71  85.1242
 45.4996  7263.96  84.1933
 45.6976  7257.56  84.337
 45.8956  7251.56  84.1187
 46.0936  7415.97  85.0751
 46.2916  7270.71  84.213
 46.4896  7335.25  84.6164
 46.6876  7359.67  85.464
 46.8856  7135.62  83.4287
 47.0836  7189.9  83.9907
 47.2816  7089.67  83.2906
 47.4796  7157.28  83.7913
 47.6776  7127.57  84.5641
 47.8756  7137.47  83.7968
 48.0736  7149.78  84.3123
 48.2716  7063.6  83.6253
 48.4696  7256.93  84.3495
 48.6676  7101.13  84.03
 48.8656  7294.91  84.8951
 49.0636  7217.86  84.3724
 49.2616  7030.96  83.3301
 49.4596  7059.22  83.0529
 49.6576  7038.53  83.1663
 49.8556  7146.93  83.8203
 50.0536  6914.11  82.8878
 50.2516  7056.15  83.8387
 50.4496  7116.29  83.8755
 50.6476  7030.57  83.0499
 50.8456  6990.02  82.8908
 51.0436  6882.37  82.6995
 51.2416  6789.99  81.8184
 51.4396  6753.18  81.9986
 51.6376  6838.21  82.3369
 51.8356  6783.13  81.6257
 52.0336  6755.88  81.9644
 52.2316  6763.43  82.3776
 52.4296  6739.52  81.9304
 52.6276  6680.99  81.6814
 52.8256  6747.23  81.648
 53.0236  6821.11  82.7292
 53.2216  6823.15  82.7869
 53.4196  6642.61  81.5767
 53.6176  6736.67  82.6628
 53.8156  6776.11  82.5784
 54.0136  6403.08  80.4326
 54.2116  6575.58  81.1374
 54.4096  6444.94  80.4059
 54.6076  6506.22  81.1404
 54.8056  6311.49  79.6839
 55.0036  6365.81  80.436
 55.2016  6537.58  81.0259
 55.3996  6189.7  78.8293
 55.5976  6276.78  79.5847
 55.7956  6232.57  79.1148
 55.9936  6346.65  79.9628
 56.1916  6231.1  79.2541
 56.3896  6160  78.7835
 56.5876  6151.31  79.2665
 56.7856  6102.62  78.4664
 56.9836  6197.52  78.8506
 57.1816  6297.64  79.843
 57.3796  5993.73  77.7185
 57.5776  6060.56  78.0424
 57.7756  5965.11  78.0984
 57.9736  5956.38  77.6908
 58.1716  5864.74  77.3591
 58.3696  5779.67  76.5612
 58.5676  5867.09  76.6087
 58.7656  5636.08  75.7478
 58.9636  5643.74  75.8226
 59.1616  5620.05  75.7971
 59.3596  5905.69  76.9636
 59.5576  5791.79  76.2746
 59.7556  5851.21  77.0765
 59.9536  5765.65  76.4121
 60.1516  5719.8  76.9337
 60.1996  0.0000000E+00  0.0000000E+00