File: docs/examples/opeando_xrd/IS17_D/Data/IS17_D/17_Db_f00017.xye
# /beamlines/bl04/projects/cycle2025-II/20250340211-lsimonelli/DATA/IS17_D/17_Db_f00017.xye : mythproc.py merge -s 0.006 -l 0.5 -f /beamlines/bl04/inhouse/ff/FlatField/ff_20Nov2024rod8mm60s_17keV.raw -b True -c true -o xye /beamlines/bl04/projects/cycle2025-II/20250340211-lsimonelli/DATA/IS17_D/17_Db_00017.dat
# IsMon = [6757553, 6758036, 6760950]  IsPos = [-1.5000, -2.4885, -3.4986]
# Wave = 0.4962  CalPath /beamlines/bl04/projects/cycle2025-II/20250340211-lsimonelli/DATA/Align/Si_Pos1_25keV_f00001.cal
# Date = 2025-09-23_22:27:06 Dt = 4.8000  Bin = 0.0060  <imon> = 6758846 +/- 1501 (Min/Max) 6757553 / 6760950
# icurr 250.8206  mocoIn 1.7105E-05  mocoOut 0.8028  i15 7.07642e+06  imon 6.75885e+06  i7 4.0000  iEMpd_timer 4.8000  iEMpd_1 3.4661E-08  iEMpd_2 7.8082E-08  iEMpd_3 1.7873E-08  iEMpd_4 4.8186E-08  iEMhp_timer 4.8000  iEMhp_1 4.9006E-06  iEMhp_2 -2.4162E-08  iEMhp_3 -2.0326E-08  iEMhp_4 -2.0415E-08
#      9776
 1.7416  68340.9  261.521
 1.9396  46675.2  216.406
 2.1376  33741.8  183.993
 2.3356  29780.3  172.492
 2.5336  30735.1  175.852
 2.7316  25781.9  161.17
 2.9296  24703.7  157.914
 3.1276  24073.4  155.43
 3.3256  23321.4  152.657
 3.5236  25132.5  158.431
 3.7216  22681.4  151.578
 3.9196  22631.5  150.63
 4.1176  22405.1  149.669
 4.3156  23246  152.61
 4.5136  26343  161.448
 4.7116  27088.8  164.844
 4.9096  26125.6  161.327
 5.1076  25862.4  161.085
 5.3056  25729.5  160.289
 5.5036  25133.3  158.451
 5.7016  25628.1  159.956
 5.8996  26254  161.15
 6.0976  26915.9  164.538
 6.2956  27238.2  164.888
 6.4936  28011.4  166.429
 6.6916  28227.3  168.023
 6.8896  29490.8  171.598
 7.0876  30272.7  174.502
 7.2856  29804.9  172.304
 7.4836  30374.8  173.306
 7.6816  31079.8  175.822
 7.8796  32108.6  178.705
 8.0776  35955.6  190.103
 8.2756  35691.7  188.028
 8.4736  35598.2  187.603
 8.6716  35092.1  186.887
 8.8696  36721.4  191.669
 9.0676  35779  188.527
 9.2656  33974.3  184.387
 9.4636  32652.2  179.263
 9.6616  31970.9  178.092
 9.8596  31237.1  175.516
 10.0576  29507.3  171.243
 10.2556  28696.7  169.314
 10.4536  32546.6  179.89
 10.6516  33960  183.983
 10.8496  25998.8  160.4
 11.0476  25929.9  160.161
 11.2456  28846.8  169.537
 11.4436  25159.7  157.519
 11.6416  24580.2  156.03
 11.8396  23675  153.32
 12.0376  23008  150.782
 12.2356  24537  156.186
 12.4336  23732.7  153.118
 12.6316  22559.1  149.535
 12.8296  23068.1  150.841
 13.0276  23000.2  150.823
 13.2256  23068.3  151.398
 13.4236  23266.7  151.826
 13.6216  23502.3  152.596
 13.8196  26450.5  161.324
 14.0176  22706  150.052
 14.2156  22261.8  147.635
 14.4136  20998.8  144.729
 14.6116  20709.2  142.952
 14.8096  19962.2  140.324
 15.0076  19394.1  142.124
 15.2056  18208.4  133.65
 15.4036  17462.8  131.685
 15.6016  17222.4  129.89
 15.7996  16833.8  128.679
 15.9976  16441.3  129.98
 16.1956  16157.7  126.805
 16.3936  15865.4  124.85
 16.5916  15759  125.065
 16.7896  15547.5  124.28
 16.9876  15535.2  125.664
 17.1856  15379.2  123.451
 17.3836  14621  120.28
 17.5816  14406.6  119.86
 17.7796  14655.4  120.822
 17.9776  14507.3  120.963
 18.1756  15552.2  123.964
 18.3736  15594.4  124.63
 18.5716  13726.1  116.692
 18.7696  13808.1  116.611
 18.9676  13660.9  115.79
 19.1656  13234.2  114.535
 19.3636  13248.4  114.79
 19.5616  13286.2  115.116
 19.7596  13365.4  114.88
 19.9576  13908.2  117.225
 20.1556  13100.2  114.28
 20.3536  12905.6  112.82
 20.5516  12653.9  112.153
 20.7496  12506.4  111.345
 20.9476  13055.2  113.612
 21.1456  12923.8  113.355
 21.3436  12376.9  110.888
 21.5416  12185.7  110.045
 21.7396  11918.1  108.675
 21.9376  12107.4  109.31
 22.1356  12434.6  110.929
 22.3336  11978.8  109.108
 22.5316  11879.4  108.762
 22.7296  11852  108.018
 22.9276  11686.6  107.909
 23.1256  12139.2  109.462
 23.3236  12103.4  109.865
 23.5216  12014.5  109.103
 23.7196  11881  108.667
 23.9176  12061.4  109.026
 24.1156  11575.8  107.246
 24.3136  11697.5  108.625
 24.5116  11553.1  107.48
 24.7096  11354.5  106.363
 24.9076  11241.2  105.865
 25.1056  10953.7  104.697
 25.3036  10631  102.922
 25.5016  10685.9  103.221
 25.6996  10714.8  102.951
 25.8976  10869.6  104.12
 26.0956  10700.4  103.32
 26.2936  10520.8  102.116
 26.4916  10734.9  103.007
 26.6896  10431.9  101.844
 26.8876  10284.4  100.979
 27.0856  10172.7  100.456
 27.2836  9926.98  99.3122
 27.4816  10125.2  100.082
 27.6796  9886.11  99.243
 27.8776  10355.3  101.429
 28.0756  9805.73  98.9961
 28.2736  9759.83  98.3573
 28.4716  9478.04  96.9724
 28.6696  9608.31  97.4931
 28.8676  9449.04  97.0214
 29.0656  9338.42  96.4272
 29.2636  9374.39  96.3311
 29.4616  9008.67  94.6823
 29.6596  9093.82  94.7103
 29.8576  8909.4  94.4077
 30.0556  9068.59  95.1277
 30.2536  9001.19  94.5711
 30.4516  9140.56  94.9534
 30.6496  9082.17  94.3874
 30.8476  9041.89  94.6055
 31.0456  9121.19  94.992
 31.2436  9113.54  94.2264
 31.4416  8927.64  93.4459
 31.6396  9331.37  95.5804
 31.8376  9066.29  93.7276
 32.0356  9009.43  94.0094
 32.2336  8897.55  92.8428
 32.4316  8636.47  91.8609
 32.6296  8651.24  91.7074
 32.8276  8601.21  91.3057
 33.0256  8509.48  90.87
 33.2236  8616.49  91.5851
 33.4216  8491.81  90.6177
 33.6196  8558.7  91.2611
 33.8176  8390.13  90.5305
 34.0156  8295.65  89.642
 34.2136  8459.05  90.5489
 34.4116  8105.93  88.8013
 34.6096  8337.79  89.9419
 34.8076  8099.02  89.0485
 35.0056  8299.58  89.8237
 35.2036  8327.83  90.1926
 35.4016  8164.92  89.2258
 35.5996  8087.25  88.8206
 35.7976  7996.76  88.5854
 35.9956  8293.81  89.881
 36.1936  8163.2  89.0235
 36.3916  8080.61  88.7687
 36.5896  8189.63  90.8088
 36.7876  7922.34  88.2485
 36.9856  7638.67  86.6895
 37.1836  7809.9  86.7798
 37.3816  7636.54  86.1614
 37.5796  7627.11  87.786
 37.7776  7828.66  87.3375
 37.9756  7897.36  87.6039
 38.1736  8076.04  88.7763
 38.3716  7907.74  88.1025
 38.5696  7744.22  87.5644
 38.7676  7685.49  86.7624
 38.9656  7811.74  87.1038
 39.1636  7712.82  86.7913
 39.3616  7753.51  86.9829
 39.5596  7558.58  86.7006
 39.7576  7550.16  86.0504
 39.9556  7585.31  85.9003
 40.1536  7726.28  86.8853
 40.3516  7604.85  86.2863
 40.5496  7611.75  86.287
 40.7476  7640.28  86.6654
 40.9456  7728.69  86.921
 41.1436  7764.85  86.852
 41.3416  7553.76  85.9902
 41.5396  7594.03  86.0335
 41.7376  7746.84  87.1458
 41.9356  7699.94  86.7478
 42.1336  7729.17  87.0569
 42.3316  7592.3  86.4741
 42.5296  7521.4  85.5975
 42.7276  7682.87  86.7533
 42.9256  7607.1  86.2035
 43.1236  7656.28  86.5826
 43.3216  7631.78  86.2952
 43.5196  7456.98  85.2659
 43.7176  7578.02  86.334
 43.9156  7180.43  83.9663
 44.1136  7220.57  83.7654
 44.3116  7273.89  84.0861
 44.5096  7204.61  83.984
 44.7076  7277.3  84.3412
 44.9056  7464.45  85.2882
 45.1036  7317.85  84.0717
 45.3016  7308.49  84.5105
 45.4996  7337.33  84.6213
 45.6976  7208.9  84.0505
 45.8956  7247.66  84.096
 46.0936  7416.08  84.8349
 46.2916  7231.77  83.9976
 46.4896  7322.79  84.5575
 46.6876  7269.22  84.9532
 46.8856  7138.12  83.5555
 47.0836  7313.78  84.7164
 47.2816  7139.79  83.5861
 47.4796  7193.11  84.0054
 47.6776  7056.13  84.1391
 47.8756  7123.09  83.708
 48.0736  7197.73  84.5855
 48.2716  7027.46  83.4091
 48.4696  7270.5  84.4176
 48.6676  7165.15  84.4102
 48.8656  7152.92  84.0613
 49.0636  7231.25  84.4738
 49.2616  7019.96  83.2644
 49.4596  7116.13  83.3741
 49.6576  7064.61  83.3059
 49.8556  7066.71  83.35
 50.0536  7171.51  84.4094
 50.2516  7030.39  83.6909
 50.4496  7072.94  83.6208
 50.6476  7023.64  83.0037
 50.8456  7015.11  83.0452
 51.0436  6882.3  82.6993
 51.2416  6848.55  82.167
 51.4396  6715.2  81.766
 51.6376  6770.79  81.9252
 51.8356  6823.8  81.8696
 52.0336  6755.88  81.9684
 52.2316  6685.63  81.8894
 52.4296  6678.53  81.5521
 52.6276  6671.01  81.6166
 52.8256  6707.42  81.4026
 53.0236  6813.98  82.6981
 53.2216  6781.69  82.5136
 53.4196  6840.92  82.8082
 53.6176  6714.5  82.5414
 53.8156  6751.16  82.4325
 54.0136  6376.43  80.2617
 54.2116  6629.66  81.4932
 54.4096  6392.95  80.0823
 54.6076  6386.83  80.3737
 54.8056  6311.42  79.6998
 55.0036  6495.48  81.1147
 55.2016  6362.6  79.8373
 55.3996  6175.52  78.7399
 55.5976  6272.58  79.5427
 55.7956  6246.79  79.2031
 55.9936  6369.49  80.0936
 56.1916  6287.94  79.6215
 56.3896  6042.67  78.0245
 56.5876  6108.87  78.9997
 56.7856  6152.61  78.7902
 56.9836  6253.19  79.2064
 57.1816  6264.96  79.6503
 57.3796  6006.82  77.7693
 57.5776  6066.53  78.0673
 57.7756  6012.34  78.398
 57.9736  6050.28  78.3058
 58.1716  5989.32  78.1793
 58.3696  5733.56  76.2565
 58.5676  5846.6  76.4873
 58.7656  5743.07  76.4608
 58.9636  5729.69  76.3975
 59.1616  5820.7  77.1355
 59.3596  5869.64  76.7214
 59.5576  5788.59  76.2455
 59.7556  5698.37  76.0552
 59.9536  5667.71  75.7524
 60.1516  5830.66  77.6675
 60.1996  0.0000000E+00  0.0000000E+00