File: docs/examples/opeando_xrd/IS17_D/Data/IS17_D/17_Da_f00040.xye
# /beamlines/bl04/projects/cycle2025-II/20250340211-lsimonelli/DATA/IS17_D/17_Da_f00040.xye : mythproc.py merge -s 0.006 -l 0.5 -f /beamlines/bl04/inhouse/ff/FlatField/ff_20Nov2024rod8mm60s_17keV.raw -b True -c true -o xye /beamlines/bl04/projects/cycle2025-II/20250340211-lsimonelli/DATA/IS17_D/17_Da_00040.dat
# IsMon = [6781681, 6786601, 6787418]  IsPos = [-1.4999, -2.4885, -3.4988]
# Wave = 0.4962  CalPath /beamlines/bl04/projects/cycle2025-II/20250340211-lsimonelli/DATA/Align/Si_Pos1_25keV_f00001.cal
# Date = 2025-09-24_04:41:47 Dt = 4.8000  Bin = 0.0060  <imon> = 6785233 +/- 2534 (Min/Max) 6781681 / 6787418
# icurr 252.2233  mocoIn 1.7212E-05  mocoOut 0.8076  i15 7.10019e+06  imon 6.78523e+06  i7 6.0000  iEMpd_timer 4.8000  iEMpd_1 3.5356E-08  iEMpd_2 7.7865E-08  iEMpd_3 1.6639E-08  iEMpd_4 5.0230E-08  iEMhp_timer 4.8000  iEMhp_1 4.9287E-06  iEMhp_2 -2.6554E-08  iEMhp_3 -2.3001E-08  iEMhp_4 -2.1997E-08
#      9776
 1.7416  70984.4  266.575
 1.9396  46595.5  216.242
 2.1376  33432.8  183.179
 2.3356  29456.7  171.58
 2.5336  27484  166.319
 2.7316  26043.7  161.98
 2.9296  25100.5  159.193
 3.1276  24518.5  156.89
 3.3256  23997.9  154.864
 3.5236  25553.9  159.769
 3.7216  23313  153.679
 3.9196  22740.5  151.022
 4.1176  22776.8  150.917
 4.3156  24084.7  155.341
 4.5136  26264.4  161.204
 4.7116  27312.9  165.529
 4.9096  26701.7  163.099
 5.1076  26321.7  162.525
 5.3056  26652.3  163.257
 5.5036  26245.8  161.992
 5.7016  26805.1  163.593
 5.8996  27138.8  163.827
 6.0976  28125.4  168.224
 6.2956  28366.5  168.267
 6.4936  29210.8  169.95
 6.6916  29612.1  172.116
 6.8896  30396  174.239
 7.0876  31414.1  177.859
 7.2856  31106.1  176.047
 7.4836  31707.7  177.081
 7.6816  32169.4  178.893
 7.8796  33858.2  183.502
 8.0776  35281.9  188.295
 8.2756  36902.6  191.185
 8.4736  37446.2  192.395
 8.6716  36458.2  190.467
 8.8696  36315.2  190.596
 9.0676  35498.2  187.81
 9.2656  34563.4  186
 9.4636  33822.6  182.427
 9.6616  33246.1  181.622
 9.8596  31962.3  177.571
 10.0576  30013.6  172.715
 10.2556  29200  170.792
 10.4536  27967.8  166.767
 10.6516  27411.6  165.274
 10.8496  26508.8  161.964
 11.0476  25773  159.672
 11.2456  25285.3  158.721
 11.4436  25108.6  157.355
 11.6416  26598.2  162.325
 11.8396  24249.8  155.201
 12.0376  23910.1  153.72
 12.2356  23552.4  153.015
 12.4336  23356.5  151.898
 12.6316  23116.3  151.385
 12.8296  23545.2  152.421
 13.0276  24013.5  154.098
 13.2256  24063.5  154.631
 13.4236  24077.1  154.448
 13.6216  23920.5  153.967
 13.8196  23791.8  153.315
 14.0176  23421.5  152.392
 14.2156  22830.8  149.524
 14.4136  21950.2  147.971
 14.6116  21593.3  145.98
 14.8096  20986.8  143.893
 15.0076  19974.4  144.181
 15.2056  19641.3  138.792
 15.4036  18518  135.594
 15.6016  18228.1  133.616
 15.7996  17825.7  132.412
 15.9976  16998.7  132.228
 16.1956  16540.9  128.333
 16.3936  16166.1  126.06
 16.5916  15847  125.434
 16.7896  15907.6  125.726
 16.9876  15699.5  126.345
 17.1856  15717.7  124.795
 17.3836  15321.7  123.116
 17.5816  14538.5  120.412
 17.7796  14285.5  119.288
 17.9776  14148.8  119.479
 18.1756  14410.7  119.313
 18.3736  14021.2  118.184
 18.5716  13933.7  117.573
 18.7696  13839.1  116.747
 18.9676  13510.7  115.176
 19.1656  13599.7  116.099
 19.3636  13522.5  115.963
 19.5616  13389.7  115.56
 19.7596  13493.7  115.43
 19.9576  13701.1  116.358
 20.1556  14580.3  120.559
 20.3536  13799.7  116.671
 20.5516  13351.5  115.209
 20.7496  12932.3  113.326
 20.9476  12668.3  111.919
 21.1456  12964  113.54
 21.3436  12602.1  111.901
 21.5416  12501.3  111.443
 21.7396  12497.1  111.283
 21.9376  12437.3  110.78
 22.1356  12460  111.002
 22.3336  12417.2  111.076
 22.5316  12452.6  111.339
 22.7296  12375.8  110.368
 22.9276  12176.6  110.132
 23.1256  12596.2  111.497
 23.3236  12308.7  110.79
 23.5216  12314.6  110.469
 23.7196  12217.6  109.986
 23.9176  12113.3  109.28
 24.1156  11931.2  108.912
 24.3136  11558.2  107.979
 24.5116  11650.3  107.941
 24.7096  11391.1  106.553
 24.9076  11012.7  104.795
 25.1056  11102.7  105.402
 25.3036  10951.8  104.464
 25.5016  10875  104.135
 25.6996  10857.5  103.636
 25.8976  10619.3  102.922
 26.0956  10651.2  103.09
 26.2936  10738.3  103.161
 26.4916  10747.2  103.087
 26.6896  10542.4  102.394
 26.8876  10360.8  101.364
 27.0856  10378.6  101.454
 27.2836  10107.4  100.06
 27.4816  10134.9  100.133
 27.6796  10052.4  100.098
 27.8776  10011  99.7543
 28.0756  9923.94  99.5926
 28.2736  9773.39  98.4272
 28.4716  9789.43  98.556
 28.6696  9608.16  97.4899
 28.8676  9533.38  97.4558
 29.0656  9474.62  97.1319
 29.2636  9544.45  97.206
 29.4616  9535.23  97.4063
 29.6596  9472.72  96.6572
 29.8576  9361.31  96.7656
 30.0556  9337.24  96.5191
 30.2536  9418.91  96.7306
 30.4516  9297.3  95.7844
 30.6496  9221.73  95.1226
 30.8476  9092.07  94.8823
 31.0456  9182.3  95.3246
 31.2436  9106.77  94.2089
 31.4416  8918.91  93.4036
 31.6396  8982.05  93.7793
 31.8376  9035.39  93.6025
 32.0356  8755.71  92.7032
 32.2336  8840.66  92.5518
 32.4316  8782.58  92.6348
 32.6296  8671.99  91.8269
 32.8276  8883.01  92.7881
 33.0256  8674.5  91.7606
 33.2236  8669.2  91.8799
 33.4216  8757.47  92.035
 33.6196  8833.07  92.7202
 33.8176  8604.56  91.6742
 34.0156  8551.38  91.0036
 34.2136  8461.75  90.5812
 34.4116  8462.71  90.7257
 34.6096  8403.56  90.2914
 34.8076  8322.7  90.258
 35.0056  8384.06  90.2872
 35.2036  8408.55  90.6287
 35.4016  8379.34  90.3836
 35.5996  8265.48  89.8077
 35.7976  8196.98  89.7136
 35.9956  8245.45  89.6186
 36.1936  8109.63  88.7523
 36.3916  8127.67  89.0237
 36.5896  8129.66  90.4667
 36.7876  8044.62  88.9293
 36.9856  7927.12  88.2985
 37.1836  7985.24  87.743
 37.3816  8067.9  88.556
 37.5796  7940.97  89.5695
 37.7776  7801.51  87.1862
 37.9756  7818.5  87.1697
 38.1736  7961.57  88.155
 38.3716  7827.09  87.6801
 38.5696  7765.05  87.6963
 38.7676  7698.34  86.8404
 38.9656  7635.32  86.1267
 39.1636  7732.6  86.9076
 39.3616  7780.6  87.1326
 39.5596  7616.98  87.03
 39.7576  7657.89  86.6541
 39.9556  7739.74  86.7637
 40.1536  7847.28  87.5662
 40.3516  7792.13  87.2645
 40.5496  7841.22  87.5934
 40.7476  7890.28  88.0769
 40.9456  7853.89  87.6268
 41.1436  7851.86  87.3388
 41.3416  7821.22  87.4965
 41.5396  7696.13  86.6109
 41.7376  7782.47  87.3553
 41.9356  7720.24  86.864
 42.1336  7743.74  87.151
 42.3316  7668.89  86.9172
 42.5296  7732.58  86.8023
 42.7276  7623.32  86.4231
 42.9256  7729.84  86.8935
 43.1236  7664.52  86.6351
 43.3216  7620.91  86.243
 43.5196  7558.11  85.8491
 43.7176  7554.45  86.2183
 43.9156  7392.47  85.1914
 44.1136  7413  84.8651
 44.3116  7508.28  85.4223
 44.5096  7495.48  85.6589
 44.7076  7383.48  84.9471
 44.9056  7395.35  84.8994
 45.1036  7313.21  84.0583
 45.3016  7270.93  84.3083
 45.4996  7156.02  83.5786
 45.6976  7112.1  83.4893
 45.8956  7188.12  83.7615
 46.0936  7240.87  84.0774
 46.2916  7124.73  83.3742
 46.4896  7232.19  84.0242
 46.6876  7176.08  84.4125
 46.8856  7038.29  82.8562
 47.0836  7077.59  83.343
 47.2816  6872.12  81.9974
 47.4796  7071.62  83.2864
 47.6776  6869.41  83.0099
 47.8756  6975.39  82.8353
 48.0736  6931.64  83.0235
 48.2716  6802.68  82.0648
 48.4696  6860.89  82.0201
 48.6676  6839.54  82.4745
 48.8656  6920.65  82.686
 49.0636  6898.19  82.509
 49.2616  6693.63  81.3025
 49.4596  6757.35  81.2542
 49.6576  6729.89  81.3155
 49.8556  6722.75  81.2957
 50.0536  6706.93  81.6377
 50.2516  6660  81.4599
 50.4496  6651.11  81.0879
 50.6476  6748.08  81.3663
 50.8456  6643.62  80.8156
 51.0436  6530.26  80.5505
 51.2416  6511.93  80.1167
 51.4396  6332.02  79.3861
 51.6376  6427.19  79.8127
 51.8356  6389.99  79.2202
 52.0336  6441.85  80.0549
 52.2316  6249.41  79.1913
 52.4296  6420.15  79.9403
 52.6276  6373.6  79.7752
 52.8256  6369.43  79.3249
 53.0236  6286.06  79.4346
 53.2216  6269.85  79.3657
 53.4196  6049.15  77.8832
 53.6176  6161.49  79.0694
 53.8156  6074.32  78.191
 54.0136  6141.17  78.7812
 54.2116  6062.59  77.9517
 54.4096  6148.37  78.5309
 54.6076  6049.86  78.2583
 54.8056  6038.27  77.9728
 55.0036  6047.53  78.4103
 55.2016  6119.47  78.4373
 55.3996  6119.69  78.4043
 55.5976  6070.47  78.2721
 55.7956  6059.18  78.0207
 55.9936  6060.29  78.1697
 56.1916  6013.9  77.8795
 56.3896  6042.99  78.0573
 56.5876  5977.11  78.1741
 56.7856  6034.08  78.0208
 56.9836  5917.2  77.0714
 57.1816  5954.84  77.684
 57.3796  6088.49  78.3446
 57.5776  5941.81  77.3196
 57.7756  5885.67  77.5878
 57.9736  5977.16  77.8665
 58.1716  6066.28  78.6772
 58.3696  5906.36  77.3865
 58.5676  5995.48  77.4394
 58.7656  6035.53  78.3775
 58.9636  6117.34  78.935
 59.1616  5935.09  77.8703
 59.3596  6108.65  78.2656
 59.5576  5978.59  77.4863
 59.7556  6075.37  78.5304
 59.9536  6147.36  78.8923
 60.1516  5890.49  78.0646
 60.1996  0.0000000E+00  0.0000000E+00