File: docs/examples/opeando_xrd/IS17_D/Data/IS17_D/17_Db_f00127.xye
# /beamlines/bl04/projects/cycle2025-II/20250340211-lsimonelli/DATA/IS17_D/17_Db_f00127.xye : mythproc.py merge -s 0.006 -l 0.5 -f /beamlines/bl04/inhouse/ff/FlatField/ff_20Nov2024rod8mm60s_17keV.raw -b True -c true -o xye /beamlines/bl04/projects/cycle2025-II/20250340211-lsimonelli/DATA/IS17_D/17_Db_00127.dat
# IsMon = [6765243, 6762612, 6763670]  IsPos = [-1.4999, -2.4884, -3.4988]
# Wave = 0.4962  CalPath /beamlines/bl04/projects/cycle2025-II/20250340211-lsimonelli/DATA/Align/Si_Pos1_25keV_f00001.cal
# Date = 2025-09-25_05:06:41 Dt = 4.8000  Bin = 0.0060  <imon> = 6763842 +/- 1081 (Min/Max) 6762612 / 6765243
# icurr 250.9404  mocoIn 1.7112E-05  mocoOut 0.8029  i15 7.08783e+06  imon 6.76384e+06  i7 5.3333  iEMpd_timer 4.8000  iEMpd_1 3.4414E-08  iEMpd_2 7.9146E-08  iEMpd_3 1.6396E-08  iEMpd_4 4.8509E-08  iEMhp_timer 4.8000  iEMhp_1 4.9017E-06  iEMhp_2 -2.5135E-08  iEMhp_3 -2.2544E-08  iEMhp_4 -2.0644E-08
#      9776
 1.7416  70180.2  264.964
 1.9396  48850.4  221.345
 2.1376  35705.8  189.234
 2.3356  31819.3  178.263
 2.5336  29532.1  172.342
 2.7316  27086.6  165.186
 2.9296  25936.1  161.803
 3.1276  25731.8  160.69
 3.3256  24893.1  157.723
 3.5236  26344.2  162.053
 3.7216  24337  157.015
 3.9196  23803.2  154.487
 4.1176  23772  154.163
 4.3156  24799.1  157.636
 4.5136  26984.6  163.405
 4.7116  28163.7  168.08
 4.9096  27375.7  165.137
 5.1076  27039.8  164.704
 5.3056  27251.8  165.075
 5.5036  26908  163.944
 5.7016  27371.6  165.31
 5.8996  28217.5  167.065
 6.0976  28898.1  170.487
 6.2956  28989.8  170.114
 6.4936  29730.8  171.458
 6.6916  29843.9  172.775
 6.8896  30885.9  175.606
 7.0876  31685.5  178.62
 7.2856  31724.9  177.767
 7.4836  32187.8  178.408
 7.6816  33032.1  181.253
 7.8796  33850.6  183.502
 8.0776  35420.6  188.702
 8.2756  37181.7  191.945
 8.4736  37480.7  192.523
 8.6716  37288  192.656
 8.8696  37922  194.774
 9.0676  36954.8  191.601
 9.2656  36183.4  190.293
 9.4636  35186.3  186.098
 9.6616  34310.6  184.501
 9.8596  33698.7  182.297
 10.0576  31651.1  177.344
 10.2556  31006  175.977
 10.4536  30326.9  173.634
 10.6516  29396.1  171.163
 10.8496  28274.8  167.271
 11.0476  27410.1  164.714
 11.2456  26699.6  163.096
 11.4436  27654.6  165.142
 11.6416  26163.6  160.967
 11.8396  25224.7  158.262
 12.0376  24704.5  156.271
 12.2356  24206.4  155.104
 12.4336  24244.9  154.766
 12.6316  24303.5  155.214
 12.8296  24412.8  155.168
 13.0276  24818.4  156.672
 13.2256  24678.4  156.598
 13.4236  24545.7  155.944
 13.6216  24880.1  156.992
 13.8196  27019.1  163.047
 14.0176  23944.9  154.103
 14.2156  23719.6  152.391
 14.4136  22488.5  149.774
 14.6116  22168.2  147.895
 14.8096  21307.4  144.976
 15.0076  20307.8  145.428
 15.2056  19604.5  138.692
 15.4036  18576  135.836
 15.6016  18365.1  134.145
 15.7996  17802.6  132.348
 15.9976  17613.3  134.548
 16.1956  17000.5  130.075
 16.3936  16967.9  129.122
 16.5916  16661.2  128.589
 16.7896  16819  129.26
 16.9876  16519.8  129.58
 17.1856  16200.8  126.699
 17.3836  15848.6  125.217
 17.5816  15574.3  124.614
 17.7796  15399.6  123.843
 17.9776  14931.4  122.724
 18.1756  15006.9  121.774
 18.3736  14843.2  121.596
 18.5716  14813  121.216
 18.7696  14586.6  119.845
 18.9676  14499.5  119.293
 19.1656  14132.4  118.361
 19.3636  13963.2  117.848
 19.5616  14190.5  118.969
 19.7596  14397.8  119.21
 19.9576  14973.9  121.637
 20.1556  14009.1  118.178
 20.3536  13653.5  116.052
 20.5516  13462.1  115.682
 20.7496  13177.1  114.388
 20.9476  13218  114.317
 21.1456  13113.6  114.199
 21.3436  13038.7  113.818
 21.5416  13036.6  113.82
 21.7396  12823.5  112.73
 21.9376  12662.5  111.793
 22.1356  12815.9  112.591
 22.3336  12531.8  111.629
 22.5316  12541.3  111.763
 22.7296  12362.9  110.332
 22.9276  12306.6  110.746
 23.1256  12627.7  111.655
 23.3236  12766  112.829
 23.5216  12649.1  111.937
 23.7196  12604.7  111.702
 23.9176  12514.1  111.048
 24.1156  12334.8  110.716
 24.3136  12214.5  110.991
 24.5116  12216.7  110.511
 24.7096  11727.5  108.099
 24.9076  11636.7  107.698
 25.1056  11224.9  106.232
 25.3036  11004.8  104.717
 25.5016  11000.3  104.734
 25.6996  11130.2  104.926
 25.8976  11131.2  105.365
 26.0956  10994.6  104.729
 26.2936  11132.1  105.044
 26.4916  11096.5  104.735
 26.6896  10914.7  104.171
 26.8876  10785.3  103.403
 27.0856  10557.8  102.38
 27.2836  10390.3  101.445
 27.4816  10351.1  101.195
 27.6796  10372.2  101.667
 27.8776  10662.1  102.935
 28.0756  10263.4  101.282
 28.2736  10054.3  99.827
 28.4716  9909.48  99.1611
 28.6696  10012  99.5202
 28.8676  9908.81  99.3523
 29.0656  9717.95  98.369
 29.2636  9797.18  98.5599
 29.4616  9509.48  97.2929
 29.6596  9508.21  96.8543
 29.8576  9430.99  97.1421
 30.0556  9446.8  97.1004
 30.2536  9636.03  97.8589
 30.4516  9519.93  96.8969
 30.6496  9515.6  96.6078
 30.8476  9567.57  97.3169
 31.0456  9464.14  96.7565
 31.2436  9623.19  96.8191
 31.4416  9414.93  95.9565
 31.6396  9519.2  96.526
 31.8376  9377.51  95.3271
 32.0356  9281.72  95.4101
 32.2336  9272.88  94.7701
 32.4316  8958.94  93.557
 32.6296  9037.47  93.8041
 32.8276  9105.39  93.9417
 33.0256  8997.42  93.4422
 33.2236  8987.07  93.5352
 33.4216  8960.77  93.0928
 33.6196  8902.98  93.0801
 33.8176  8980.62  93.6539
 34.0156  8839.9  92.5431
 34.2136  8869.55  92.717
 34.4116  8519.21  91.0395
 34.6096  8670.38  91.7193
 34.8076  8549.46  91.4938
 35.0056  8491.35  90.8458
 35.2036  8797.79  92.7019
 35.4016  8506.69  91.0684
 35.5996  8530.25  91.2365
 35.7976  8360.15  90.596
 35.9956  8591.55  91.4761
 36.1936  8517.77  90.9382
 36.3916  8359.97  90.2868
 36.5896  8338.25  91.1585
 36.7876  8219.56  89.9062
 36.9856  7909.43  88.2219
 37.1836  8107.68  88.4287
 37.3816  8094.15  88.7161
 37.5796  8181.03  90.9135
 37.7776  8299.76  89.9112
 37.9756  8121.46  88.8308
 38.1736  8210.48  89.5082
 38.3716  8228.94  89.8825
 38.5696  7987.14  88.9344
 38.7676  8119.23  89.1743
 38.9656  8088.28  88.6286
 39.1636  8015.96  88.502
 39.3616  8064.7  88.7103
 39.5596  7913.44  88.7031
 39.7576  7932.84  88.2067
 39.9556  7970.83  88.0546
 40.1536  7972.53  88.255
 40.3516  8137.71  89.1722
 40.5496  8012.97  88.7574
 40.7476  7928.43  88.2807
 40.9456  8043.64  88.6805
 41.1436  8038.4  88.365
 41.3416  7822.26  87.5072
 41.5396  8022.05  88.4253
 41.7376  8030.53  88.7284
 41.9356  7920.65  87.9793
 42.1336  8208.99  89.7068
 42.3316  7873.21  88.068
 42.5296  7829.54  87.3377
 42.7276  7983.61  88.4374
 42.9256  7834.83  87.4784
 43.1236  7892.04  87.907
 43.3216  7872.45  87.5401
 43.5196  7812.42  87.2725
 43.7176  7837.58  87.8034
 43.9156  7496.84  85.804
 44.1136  7497.09  85.3618
 44.3116  7730.98  86.6989
 44.5096  7525.82  85.8483
 44.7076  7523.68  85.7643
 44.9056  7758.52  86.9504
 45.1036  7804.74  86.8176
 45.3016  7711.5  86.8124
 45.4996  7613.67  86.1982
 45.6976  7467.47  85.5456
 45.8956  7561.46  85.8971
 46.0936  7717.87  86.7805
 46.2916  7610.51  86.1562
 46.4896  7628.63  86.2875
 46.6876  7521.79  86.4015
 46.8856  7512.59  85.6106
 47.0836  7535.37  85.9887
 47.2816  7365.84  84.8985
 47.4796  7492.44  85.7301
 47.6776  7442.18  86.4137
 47.8756  7460.37  85.6702
 48.0736  7470.23  86.1863
 48.2716  7407.1  85.6378
 48.4696  7512.28  85.8232
 48.6676  7429.5  85.9483
 48.8656  7427.11  85.6641
 49.0636  7472.89  85.866
 49.2616  7349.67  85.195
 49.4596  7403.7  85.0611
 49.6576  7349.92  84.9891
 49.8556  7311.52  84.7792
 50.0536  7360.04  85.5192
 50.2516  7371.16  85.7099
 50.4496  7399.39  85.5282
 50.6476  7383.38  85.1067
 50.8456  7345.61  84.9738
 51.0436  7064.14  83.7872
 51.2416  7096.2  83.6487
 51.4396  6938.73  83.1238
 51.6376  7123.54  84.0435
 51.8356  7013.35  82.9984
 52.0336  7014.45  83.5117
 52.2316  6993.83  83.7638
 52.4296  7004.38  83.5236
 52.6276  6857.18  82.7505
 52.8256  7004.89  83.188
 53.0236  7119.43  84.5208
 53.2216  7038.69  84.0809
 53.4196  6853.79  82.8683
 53.6176  6895.97  83.6337
 53.8156  6864.79  83.1151
 54.0136  6720.72  82.4068
 54.2116  6843.31  82.7795
 54.4096  6646.68  81.6571
 54.6076  6757.45  82.6905
 54.8056  6527.39  81.0455
 55.0036  6600.44  81.8873
 55.2016  6710.15  82.0897
 55.3996  6436.3  80.3912
 55.5976  6587.03  81.5157
 55.7956  6496.46  80.7614
 55.9936  6625.08  81.6885
 56.1916  6372.93  80.1509
 56.3896  6317.39  79.7818
 56.5876  6445.56  81.1648
 56.7856  6367.9  80.1657
 56.9836  6431.96  80.319
 57.1816  6566.87  81.5337
 57.3796  6307.83  79.7304
 57.5776  6248.09  79.2437
 57.7756  6210.34  79.6825
 57.9736  6315.19  80.0168
 58.1716  6143.99  79.1842
 58.3696  6020.31  78.1425
 58.5676  6069.45  77.9344
 58.7656  6059.63  78.5479
 58.9636  5982.79  78.0783
 59.1616  6105.29  79.0016
 59.3596  6030.08  77.7755
 59.5576  6109.08  78.341
 59.7556  5941.58  77.6744
 59.9536  6095.19  78.5704
 60.1516  6007.52  78.85
 60.1996  0.0000000E+00  0.0000000E+00