File: docs/examples/opeando_xrd/IS17_D/Data/IS17_D/17_Da_f00049.xye
# /beamlines/bl04/projects/cycle2025-II/20250340211-lsimonelli/DATA/IS17_D/17_Da_f00049.xye : mythproc.py merge -s 0.006 -l 0.5 -f /beamlines/bl04/inhouse/ff/FlatField/ff_20Nov2024rod8mm60s_17keV.raw -b True -c true -o xye /beamlines/bl04/projects/cycle2025-II/20250340211-lsimonelli/DATA/IS17_D/17_Da_00049.dat
# IsMon = [6754271, 6757231, 6754327]  IsPos = [-1.4999, -2.4885, -3.4986]
# Wave = 0.4962  CalPath /beamlines/bl04/projects/cycle2025-II/20250340211-lsimonelli/DATA/Align/Si_Pos1_25keV_f00001.cal
# Date = 2025-09-24_07:12:50 Dt = 4.8000  Bin = 0.0060  <imon> = 6755276 +/- 1382 (Min/Max) 6754271 / 6757231
# icurr 249.5008  mocoIn 1.7020E-05  mocoOut 0.7986  i15 7.07086e+06  imon 6.75528e+06  i7 7.0000  iEMpd_timer 4.8000  iEMpd_1 3.5793E-08  iEMpd_2 7.9724E-08  iEMpd_3 1.8282E-08  iEMpd_4 4.9094E-08  iEMhp_timer 4.8000  iEMhp_1 4.8750E-06  iEMhp_2 -2.5096E-08  iEMhp_3 -2.3669E-08  iEMhp_4 -2.0897E-08
#      9776
 1.7416  70825.9  266.228
 1.9396  47159.4  217.52
 2.1376  33677.3  183.813
 2.3356  30215.6  173.744
 2.5336  28239.2  168.557
 2.7316  26848.6  164.443
 2.9296  25680.6  161.003
 3.1276  24906  158.104
 3.3256  24610.4  156.814
 3.5236  26011.4  161.172
 3.7216  24020.2  155.995
 3.9196  23516.1  153.575
 4.1176  23219.3  152.37
 4.3156  24596.8  156.993
 4.5136  26830.6  162.931
 4.7116  27931.2  167.395
 4.9096  27292.6  164.898
 5.1076  26821.5  164.053
 5.3056  27164  164.717
 5.5036  26731.6  163.418
 5.7016  27102.6  164.497
 5.8996  27799.1  165.812
 6.0976  28488.3  169.296
 6.2956  29078.3  170.371
 6.4936  29749.4  171.509
 6.6916  30403  174.399
 6.8896  31237.3  176.628
 7.0876  32237.6  180.176
 7.2856  32106.5  178.853
 7.4836  32382.6  178.953
 7.6816  33369.1  182.2
 7.8796  34856.3  186.201
 8.0776  36090  190.459
 8.2756  38163.4  194.442
 8.4736  38574.3  195.289
 8.6716  37917.9  194.255
 8.8696  37748.6  194.314
 9.0676  36866.5  191.403
 9.2656  36291.4  190.6
 9.4636  35400.8  186.645
 9.6616  35013.7  186.41
 9.8596  33427.2  181.571
 10.0576  31802.9  177.772
 10.2556  30340.3  174.079
 10.4536  29321  170.732
 10.6516  28682.6  169.056
 10.8496  27742.6  165.693
 11.0476  27074.3  163.652
 11.2456  26206.4  161.584
 11.4436  26202.4  160.748
 11.6416  27601  165.353
 11.8396  25134  157.996
 12.0376  25087.4  157.461
 12.2356  24495.3  156.053
 12.4336  24470  155.483
 12.6316  24092.9  154.544
 12.8296  24325.1  154.928
 13.0276  25064  157.441
 13.2256  25313.4  158.601
 13.4236  25087.8  157.657
 13.6216  24854.1  156.937
 13.8196  24868.3  156.746
 14.0176  24485.3  155.82
 14.2156  24110.9  153.659
 14.4136  22858.2  150.999
 14.6116  22494.8  148.995
 14.8096  21923.6  147.079
 15.0076  20689.4  146.724
 15.2056  20079.3  140.351
 15.4036  19346.1  138.602
 15.6016  19028.2  136.53
 15.7996  18502.2  134.913
 15.9976  17667.3  134.808
 16.1956  17164.7  130.736
 16.3936  16738.9  128.278
 16.5916  16579.7  128.303
 16.7896  16595  128.416
 16.9876  16391  129.091
 17.1856  16287.8  127.027
 17.3836  15803.3  125.024
 17.5816  15291.6  123.477
 17.7796  15088.6  122.584
 17.9776  14772.5  122.087
 18.1756  14680  120.43
 18.3736  14562.3  120.441
 18.5716  14361.3  119.365
 18.7696  14447.6  119.289
 18.9676  14253.5  118.294
 19.1656  14021.4  117.876
 19.3636  14120.8  118.493
 19.5616  14022.1  118.256
 19.7596  13996  117.547
 19.9576  14244.3  118.649
 20.1556  15190.1  123.063
 20.3536  14226.4  118.461
 20.5516  13768.1  116.99
 20.7496  13490.2  115.746
 20.9476  13289.7  114.632
 21.1456  13318.9  115.089
 21.3436  13179.5  114.435
 21.5416  13168  114.386
 21.7396  12905.8  113.084
 21.9376  12807  112.426
 22.1356  12954.7  113.068
 22.3336  12803.4  112.8
 22.5316  12870.4  113.207
 22.7296  12839.7  112.417
 22.9276  12588.4  111.997
 23.1256  13024.5  113.396
 23.3236  13020.8  113.948
 23.5216  12742.3  112.376
 23.7196  12551.9  111.483
 23.9176  12665.6  111.736
 24.1156  12454.6  111.277
 24.3136  11913.7  109.608
 24.5116  12110  110.034
 24.7096  11766.8  108.283
 24.9076  11443.6  106.815
 25.1056  11409  106.833
 25.3036  11262.9  105.934
 25.5016  11181.7  105.59
 25.6996  11251.9  105.502
 25.8976  11137.6  105.403
 26.0956  10987.1  104.708
 26.2936  11183.6  105.279
 26.4916  11183.6  105.162
 26.6896  10800.4  103.642
 26.8876  10773.4  103.362
 27.0856  10641.9  102.738
 27.2836  10518.6  102.238
 27.4816  10388.4  101.378
 27.6796  10426.6  101.944
 27.8776  10338.5  101.371
 28.0756  10267  101.301
 28.2736  10269.7  100.897
 28.4716  10124.8  100.235
 28.6696  10027.1  99.5869
 28.8676  9971.72  99.6657
 29.0656  9925.08  99.4123
 29.2636  9928.33  99.1399
 29.4616  9667.55  98.0895
 29.6596  9893.04  98.7861
 29.8576  9545.43  97.7218
 30.0556  9757.01  98.6781
 30.2536  9712.97  98.2424
 30.4516  9562.42  97.1429
 30.6496  9605.72  97.0878
 30.8476  9577.43  97.3896
 31.0456  9509.57  97.0007
 31.2436  9478.12  96.1051
 31.4416  9231.84  95.0156
 31.6396  9374.24  95.7944
 31.8376  9302.69  94.972
 32.0356  9277.25  95.4078
 32.2336  9139.9  94.0959
 32.4316  9120.34  94.3956
 32.6296  9131.54  94.2264
 32.8276  9216.38  94.5058
 33.0256  8917.7  93.0334
 33.2236  8945.43  93.3268
 33.4216  9091.5  93.7778
 33.6196  9009.26  93.6414
 33.8176  9013.96  93.8297
 34.0156  8867.54  92.6837
 34.2136  8848.72  92.6241
 34.4116  8838.76  92.7134
 34.6096  8663.97  91.6754
 34.8076  8542.24  91.444
 35.0056  8684.49  91.8911
 35.2036  8663.43  91.986
 35.4016  8669.1  91.9416
 35.5996  8471.66  90.922
 35.7976  8608.16  91.9337
 35.9956  8480.06  90.8916
 36.1936  8521.69  90.9807
 36.3916  8362.63  90.303
 36.5896  8427.65  92.0967
 36.7876  8402  90.8925
 36.9856  8331.13  90.5359
 37.1836  8245.07  89.1665
 37.3816  8466.92  90.7291
 37.5796  8258.1  91.3379
 37.7776  8061.29  88.6275
 37.9756  8076.06  88.5911
 38.1736  8194.06  89.4351
 38.3716  8107.59  89.2398
 38.5696  8071.37  89.4107
 38.7676  7853.99  87.7033
 38.9656  8022.27  88.2717
 39.1636  7994.47  88.3537
 39.3616  7923.28  87.9213
 39.5596  7875.02  88.5095
 39.7576  7887.67  87.9385
 39.9556  8088.08  88.6864
 40.1536  8108.01  89.013
 40.3516  8161.72  89.3991
 40.5496  8120.12  89.1321
 40.7476  8141.19  89.4685
 40.9456  8211.6  89.6044
 41.1436  8032.26  88.3402
 41.3416  7993.05  88.4572
 41.5396  8037.99  88.515
 41.7376  7969.52  88.4031
 41.9356  7962.05  88.2196
 42.1336  7962.48  88.3665
 42.3316  7955.69  88.5295
 42.5296  7978.56  88.1641
 42.7276  7935.36  88.1743
 42.9256  7883.19  87.7438
 43.1236  7790.95  87.3461
 43.3216  7892.69  87.7669
 43.5196  7798.65  87.1954
 43.7176  7778.05  87.4786
 43.9156  7653.9  86.691
 44.1136  7744.83  86.7539
 44.3116  7711.92  86.5878
 44.5096  7578  86.1362
 44.7076  7676.81  86.6259
 44.9056  7621.32  86.1884
 45.1036  7547.53  85.3962
 45.3016  7502.92  85.6418
 45.4996  7350.53  84.7087
 45.6976  7327.53  84.7521
 45.8956  7398.57  84.969
 46.0936  7490.7  85.5024
 46.2916  7462.38  85.3176
 46.4896  7404.11  85.0151
 46.6876  7340.09  85.3609
 46.8856  7306.91  84.5488
 47.0836  7256.11  84.384
 47.2816  7209.37  83.9789
 47.4796  7232.19  84.2265
 47.6776  7124.51  84.5335
 47.8756  7048.05  83.2572
 48.0736  7174.67  84.4484
 48.2716  6963.47  83.0316
 48.4696  7125.29  83.5893
 48.6676  7080.63  83.9123
 48.8656  7071.38  83.5783
 49.0636  6983.77  83.0102
 49.2616  6868.92  82.3586
 49.4596  6952.68  82.4316
 49.6576  6994.86  82.9023
 49.8556  6877.06  82.2239
 50.0536  6946.14  83.0722
 50.2516  6871.1  82.7396
 50.4496  6832.74  82.1851
 50.6476  6940.89  82.5215
 50.8456  6783.05  81.6529
 51.0436  6720.91  81.7251
 51.2416  6743.77  81.5363
 51.4396  6603.9  81.0801
 51.6376  6571.03  80.6999
 51.8356  6664.24  80.9078
 52.0336  6639.28  81.2741
 52.2316  6554.06  81.0975
 52.4296  6550.02  80.7653
 52.6276  6597.37  81.1682
 52.8256  6692.44  81.3106
 53.0236  6489.35  80.6993
 53.2216  6407.83  80.2227
 53.4196  6409.07  80.1533
 53.6176  6471.18  81.0237
 53.8156  6368.53  80.0528
 54.0136  6403.65  80.4555
 54.2116  6426.51  80.2486
 54.4096  6419.67  80.2602
 54.6076  6289.03  79.7913
 54.8056  6287.3  79.5626
 55.0036  6325.45  80.1995
 55.2016  6365.11  79.9973
 55.3996  6352.14  79.8809
 55.5976  6221.29  79.2418
 55.7956  6197.95  78.9121
 55.9936  6257.15  79.4193
 56.1916  6232.18  79.2832
 56.3896  6235.53  79.2878
 56.5876  6156.54  79.341
 56.7856  6199.58  79.0989
 56.9836  6191.65  78.8293
 57.1816  6243.55  79.5436
 57.3796  6235.38  79.2611
 57.5776  6284.27  79.5245
 57.7756  6124.24  79.1443
 57.9736  6224.38  79.4542
 58.1716  6208.49  79.6052
 58.3696  6127.02  78.8237
 58.5676  6211.83  78.8386
 58.7656  6235.06  79.6564
 58.9636  6210.65  79.5459
 59.1616  6164.08  79.3603
 59.3596  6257.14  79.2314
 59.5576  6351.71  79.8861
 59.7556  6231.84  79.5536
 59.9536  6428.68  80.6959
 60.1516  6107.76  79.5096
 60.1996  0.0000000E+00  0.0000000E+00