File: docs/examples/opeando_xrd/IS17_D/Data/IS17_D/17_Da_f00144.xye
# /beamlines/bl04/projects/cycle2025-II/20250340211-lsimonelli/DATA/IS17_D/17_Da_f00144.xye : mythproc.py merge -s 0.006 -l 0.5 -f /beamlines/bl04/inhouse/ff/FlatField/ff_20Nov2024rod8mm60s_17keV.raw -b True -c true -o xye /beamlines/bl04/projects/cycle2025-II/20250340211-lsimonelli/DATA/IS17_D/17_Da_00144.dat
# IsMon = [6779222, 6784127, 6778591]  IsPos = [-1.4999, -2.4884, -3.4988]
# Wave = 0.4962  CalPath /beamlines/bl04/projects/cycle2025-II/20250340211-lsimonelli/DATA/Align/Si_Pos1_25keV_f00001.cal
# Date = 2025-09-25_09:42:18 Dt = 4.8000  Bin = 0.0060  <imon> = 6780647 +/- 2474 (Min/Max) 6778591 / 6784127
# icurr 252.0975  mocoIn 1.7196E-05  mocoOut 0.8077  i15 7.09711e+06  imon 6.78065e+06  i7 7.3333  iEMpd_timer 4.8000  iEMpd_1 3.6420E-08  iEMpd_2 7.9668E-08  iEMpd_3 1.8675E-08  iEMpd_4 4.9124E-08  iEMhp_timer 4.8000  iEMhp_1 4.9253E-06  iEMhp_2 -2.6387E-08  iEMhp_3 -2.5066E-08  iEMhp_4 -2.1317E-08
#      9776
 1.7416  70953.2  266.475
 1.9396  46761.1  216.605
 2.1376  32643.7  180.976
 2.3356  29457.4  171.556
 2.5336  27569.8  166.552
 2.7316  25850.1  161.353
 2.9296  24357.3  156.794
 3.1276  24024.4  155.276
 3.3256  23584.6  153.501
 3.5236  25601.2  159.73
 3.7216  23308.7  153.667
 3.9196  23154.6  152.391
 4.1176  22895.4  151.306
 4.3156  24195.8  155.711
 4.5136  26743.1  162.66
 4.7116  27574.4  166.319
 4.9096  26898.6  163.709
 5.1076  26487.2  163.028
 5.3056  27113.2  164.678
 5.5036  27007.4  164.224
 5.7016  27476.5  165.629
 5.8996  28247.2  167.135
 6.0976  28934  170.62
 6.2956  29130.5  170.524
 6.4936  29767.9  171.565
 6.6916  30168.9  173.725
 6.8896  30999.5  175.957
 7.0876  31936.5  179.331
 7.2856  31969.9  178.475
 7.4836  32255.1  178.602
 7.6816  33033.3  181.279
 7.8796  34602.5  185.524
 8.0776  36494.2  191.515
 8.2756  38116.6  194.333
 8.4736  38858  196.002
 8.6716  38088.3  194.682
 8.8696  38018.8  195.027
 9.0676  37266.3  192.446
 9.2656  36311.3  190.65
 9.4636  35884.5  187.936
 9.6616  35083.2  186.603
 9.8596  33570.6  181.958
 10.0576  32157.2  178.743
 10.2556  30886.2  175.632
 10.4536  30188.4  173.233
 10.6516  29963.3  172.78
 10.8496  28522.3  168.006
 11.0476  28042.6  166.606
 11.2456  27590  165.788
 11.4436  27665.8  165.172
 11.6416  26648.2  162.472
 11.8396  25219.7  158.267
 12.0376  25227.5  157.93
 12.2356  24807.1  157.001
 12.4336  24700  156.212
 12.6316  24383.4  155.479
 12.8296  24614.3  155.846
 13.0276  25168.6  157.768
 13.2256  24965.5  157.506
 13.4236  25012.2  157.418
 13.6216  25076.7  157.641
 13.8196  24973.2  157.073
 14.0176  24573.3  156.1
 14.2156  23860.8  152.858
 14.4136  22733.3  150.583
 14.6116  22452.1  148.851
 14.8096  21913.5  147.047
 15.0076  20730.8  146.861
 15.2056  20405.1  141.485
 15.4036  19268.4  138.322
 15.6016  18935.4  136.197
 15.7996  18543  135.069
 15.9976  17788.1  135.274
 16.1956  17136  130.634
 16.3936  16836.5  128.659
 16.5916  16697.4  128.765
 16.7896  16638  128.592
 16.9876  16597.7  129.901
 17.1856  16288.5  127.018
 17.3836  15803.1  125.015
 17.5816  15548.7  124.504
 17.7796  15368.6  123.708
 17.9776  15227.1  123.958
 18.1756  15535.6  123.879
 18.3736  15372.1  123.74
 18.5716  14915.3  121.641
 18.7696  14824  120.835
 18.9676  14619.8  119.805
 19.1656  14516.9  119.935
 19.3636  14456  119.896
 19.5616  14289.5  119.384
 19.7596  14259.7  118.65
 19.9576  14966.8  121.615
 20.1556  14404.1  119.837
 20.3536  13929.6  117.22
 20.5516  13599.4  116.271
 20.7496  13570  116.082
 20.9476  13288.7  114.626
 21.1456  13413.6  115.493
 21.3436  13159.3  114.345
 21.5416  13089.1  114.044
 21.7396  13089.3  113.89
 21.9376  13051.6  113.484
 22.1356  13101.2  113.807
 22.3336  12980  113.585
 22.5316  12957.2  113.582
 22.7296  12888.1  112.634
 22.9276  12742.6  112.676
 23.1256  13134  113.863
 23.3236  12893.9  113.395
 23.5216  12781.7  112.556
 23.7196  12670.7  112.013
 23.9176  12542.7  111.199
 24.1156  12536  111.646
 24.3136  12130.4  110.604
 24.5116  12000.2  109.532
 24.7096  11831.1  108.574
 24.9076  11629.2  107.671
 25.1056  11233.8  106.287
 25.3036  11346.8  106.328
 25.5016  11232.7  105.832
 25.6996  11314.2  105.79
 25.8976  11280.8  106.074
 26.0956  11347.6  106.417
 26.2936  11222.4  105.45
 26.4916  11242.5  105.44
 26.6896  10964.5  104.425
 26.8876  10842.3  103.689
 27.0856  10812.3  103.607
 27.2836  10553.5  102.249
 27.4816  10501.4  101.925
 27.6796  10497.4  102.289
 27.8776  10446.7  101.899
 28.0756  10388.9  101.901
 28.2736  10399.6  101.532
 28.4716  10140.6  100.311
 28.6696  10146.9  100.183
 28.8676  9970.08  99.6527
 29.0656  9869.99  99.1371
 29.2636  9911.71  99.1332
 29.4616  9968.13  99.6012
 29.6596  9854.72  98.5913
 29.8576  9831.43  99.1734
 30.0556  9812.69  98.9569
 30.2536  9914.64  99.2567
 30.4516  9709.28  97.8917
 30.6496  9705.02  97.5924
 30.8476  9660.45  97.8167
 31.0456  9510.38  97.012
 31.2436  9483.79  96.1372
 31.4416  9370.98  95.7273
 31.6396  9304.04  95.431
 31.8376  9300.48  94.9593
 32.0356  9214.11  95.0828
 32.2336  9288  94.8496
 32.4316  9130.88  94.4513
 32.6296  9190.27  94.5924
 32.8276  9232.58  94.5809
 33.0256  9173  94.3583
 33.2236  9118.3  94.2242
 33.4216  9229.12  94.4805
 33.6196  9129.1  94.258
 33.8176  9040.98  93.9729
 34.0156  8926.44  92.9868
 34.2136  9018.55  93.508
 34.4116  8922.58  93.1638
 34.6096  8811.32  92.4561
 34.8076  8758.35  92.596
 35.0056  8762.47  92.3012
 35.2036  8642.24  91.8729
 35.4016  8656.97  91.8747
 35.5996  8569.06  91.4441
 35.7976  8525.42  91.4842
 35.9956  8665.29  91.8708
 36.1936  8535.16  91.0549
 36.3916  8516.56  91.1279
 36.5896  8401.01  91.4747
 36.7876  8476.37  91.2864
 36.9856  8279.49  90.2538
 37.1836  8420.97  90.1108
 37.3816  8408.73  90.4209
 37.5796  8312.46  91.6437
 37.7776  8176.78  89.2651
 37.9756  8224.47  89.405
 38.1736  8318.05  90.1167
 38.3716  8274.47  90.1585
 38.5696  8182.2  90.0145
 38.7676  8001.41  88.5189
 38.9656  8202.69  89.2555
 39.1636  8018.21  88.5176
 39.3616  8072.18  88.7383
 39.5596  7987.94  89.1357
 39.7576  7907.86  88.0633
 39.9556  8077.25  88.6355
 40.1536  8131.01  89.1355
 40.3516  8168.45  89.3525
 40.5496  8151.58  89.5173
 40.7476  8143.31  89.4806
 40.9456  8095.68  88.9655
 41.1436  8100.9  88.7169
 41.3416  8110.19  89.1012
 41.5396  7982.04  88.2055
 41.7376  8178.14  89.5467
 41.9356  7980.98  88.3254
 42.1336  7934.86  88.2175
 42.3316  8059.43  89.1062
 42.5296  7987  88.2158
 42.7276  7980.12  88.423
 42.9256  7891.8  87.7967
 43.1236  7895.14  87.9279
 43.3216  7860.31  87.4876
 43.5196  7853.54  87.5036
 43.7176  7751.13  87.3298
 43.9156  7760.57  87.2932
 44.1136  7755.41  86.8119
 44.3116  7699.86  86.5197
 44.5096  7805.57  87.4202
 44.7076  7556.21  85.9418
 44.9056  7713.21  86.7113
 45.1036  7561.6  85.4792
 45.3016  7417.63  85.1599
 45.4996  7509.65  85.6253
 45.6976  7328.95  84.7653
 45.8956  7525.23  85.6879
 46.0936  7438.41  85.1993
 46.2916  7580.61  85.9864
 46.4896  7452.17  85.2853
 46.6876  7407.17  85.7234
 46.8856  7362.98  84.7539
 47.0836  7285.28  84.5489
 47.2816  7144.78  83.6017
 47.4796  7236.25  84.2567
 47.6776  7117.69  84.5093
 47.8756  7134.13  83.7718
 48.0736  7156.56  84.3654
 48.2716  7074.69  83.6948
 48.4696  7091.24  83.3857
 48.6676  7096.13  83.9957
 48.8656  7097.54  83.7419
 49.0636  7106.13  83.7356
 49.2616  6959.23  82.9052
 49.4596  7002.43  82.717
 49.6576  6927.56  82.5053
 49.8556  6916.99  82.4613
 50.0536  6888.58  82.7403
 50.2516  6824.35  82.4848
 50.4496  6924.48  82.7351
 50.6476  6915.01  82.3677
 50.8456  6858.56  82.1197
 51.0436  6776.56  82.059
 51.2416  6710.98  81.3437
 51.4396  6612.96  81.1364
 51.6376  6582.64  80.7683
 51.8356  6799.76  81.7234
 52.0336  6578.31  80.9033
 52.2316  6611.04  81.4546
 52.4296  6669.65  81.5087
 52.6276  6592.73  81.1521
 52.8256  6644.01  81.0213
 53.0236  6468.08  80.5598
 53.2216  6500.62  80.8003
 53.4196  6454.1  80.4354
 53.6176  6378.14  80.4357
 53.8156  6465.21  80.6505
 54.0136  6516.49  81.163
 54.2116  6427.76  80.2644
 54.4096  6440.09  80.3792
 54.6076  6407.88  80.5413
 54.8056  6313.99  79.7346
 55.0036  6302.29  80.0553
 55.2016  6233.34  79.162
 55.3996  6294  79.5153
 55.5976  6340.63  79.997
 55.7956  6318.95  79.6755
 55.9936  6269.92  79.5036
 56.1916  6292.96  79.6589
 56.3896  6322.81  79.8415
 56.5876  6218.19  79.733
 56.7856  6232.72  79.2946
 56.9836  6186.56  78.7966
 57.1816  6177.87  79.1208
 57.3796  6221.09  79.1908
 57.5776  6267.57  79.4209
 57.7756  6162.3  79.3817
 57.9736  6209.15  79.3629
 58.1716  6191.14  79.4928
 58.3696  6272.34  79.7452
 58.5676  6295.44  79.3638
 58.7656  6207.17  79.489
 58.9636  6239.49  79.7296
 59.1616  6231.09  79.7942
 59.3596  6204.87  78.9065
 59.5576  6274.08  79.4029
 59.7556  6179.66  79.2263
 59.9536  6414.91  80.616
 60.1516  6380.36  81.2712
 60.1996  0.0000000E+00  0.0000000E+00