File: docs/examples/opeando_xrd/IS17_D/Data/IS17_D/17_Da_f00086.xye
# /beamlines/bl04/projects/cycle2025-II/20250340211-lsimonelli/DATA/IS17_D/17_Da_f00086.xye : mythproc.py merge -s 0.006 -l 0.5 -f /beamlines/bl04/inhouse/ff/FlatField/ff_20Nov2024rod8mm60s_17keV.raw -b True -c true -o xye /beamlines/bl04/projects/cycle2025-II/20250340211-lsimonelli/DATA/IS17_D/17_Da_00086.dat
# IsMon = [6760185, 6760531, 6761465]  IsPos = [-1.4999, -2.4884, -3.4988]
# Wave = 0.4962  CalPath /beamlines/bl04/projects/cycle2025-II/20250340211-lsimonelli/DATA/Align/Si_Pos1_25keV_f00001.cal
# Date = 2025-09-24_17:30:41 Dt = 4.8000  Bin = 0.0060  <imon> = 6760727 +/- 541 (Min/Max) 6760185 / 6761465
# icurr 250.1205  mocoIn 1.7055E-05  mocoOut 0.8005  i15 7.07732e+06  imon 6.76073e+06  i7 5.6667  iEMpd_timer 4.8000  iEMpd_1 3.3867E-08  iEMpd_2 7.8129E-08  iEMpd_3 1.4952E-08  iEMpd_4 4.5270E-08  iEMhp_timer 4.8000  iEMhp_1 4.8848E-06  iEMhp_2 -2.6377E-08  iEMhp_3 -2.4668E-08  iEMhp_4 -2.2721E-08
#      9776
 1.7416  69835.5  264.351
 1.9396  45390.3  213.39
 2.1376  32067.3  179.36
 2.3356  29045.1  170.34
 2.5336  26691.3  163.867
 2.7316  25296.8  159.632
 2.9296  24076  155.902
 3.1276  23806  154.575
 3.3256  23292.1  152.57
 3.5236  25273  158.727
 3.7216  23024.8  152.731
 3.9196  22719.1  150.952
 4.1176  22694.8  150.631
 4.3156  23931  154.845
 4.5136  26230.7  161.105
 4.7116  27403.6  165.8
 4.9096  26790  163.375
 5.1076  26360.8  162.636
 5.3056  26963.7  164.216
 5.5036  26506  162.71
 5.7016  27176.5  164.724
 5.8996  27954.6  166.276
 6.0976  28467  169.234
 6.2956  29026.9  170.221
 6.4936  29500.5  170.793
 6.6916  29936.9  173.057
 6.8896  30522.8  174.599
 7.0876  31439.7  177.928
 7.2856  31448.8  177.01
 7.4836  31631.6  176.867
 7.6816  32664.8  180.269
 7.8796  34159.2  184.331
 8.0776  35188.9  188.067
 8.2756  37225.2  192.032
 8.4736  38029.6  193.912
 8.6716  37101.5  192.162
 8.8696  36906.5  192.126
 9.0676  36360.8  190.068
 9.2656  35228.4  187.773
 9.4636  34886.3  185.255
 9.6616  34220.5  184.261
 9.8596  32796.7  179.864
 10.0576  31138.5  175.918
 10.2556  30337  174.079
 10.4536  29554.9  171.422
 10.6516  29284.9  170.834
 10.8496  27943.4  166.284
 11.0476  27332.3  164.479
 11.2456  26423.3  162.256
 11.4436  26805.1  162.589
 11.6416  26024.5  160.565
 11.8396  24488.5  155.954
 12.0376  24570.2  155.852
 12.2356  24171.1  154.982
 12.4336  24200.3  154.624
 12.6316  23562.1  152.833
 12.8296  24150.1  154.369
 13.0276  24648.4  156.135
 13.2256  24594.6  156.331
 13.4236  24474.7  155.71
 13.6216  24256.2  155.035
 13.8196  24438.4  155.386
 14.0176  24038.9  154.398
 14.2156  23535  151.81
 14.4136  22307.2  149.167
 14.6116  22124.6  147.765
 14.8096  21393.6  145.287
 15.0076  20137.6  144.755
 15.2056  19940.3  139.867
 15.4036  18713.7  136.324
 15.6016  18618.9  135.053
 15.7996  18173.5  133.709
 15.9976  17576.7  134.445
 16.1956  17014.8  130.154
 16.3936  16472.3  127.243
 16.5916  16393.9  127.572
 16.7896  16247.1  127.058
 16.9876  16226.7  128.44
 17.1856  15894.6  125.491
 17.3836  15421  123.514
 17.5816  15103.6  122.721
 17.7796  14883.6  121.756
 17.9776  14946.4  122.802
 18.1756  15091.9  122.107
 18.3736  15113.6  122.703
 18.5716  14611.7  120.396
 18.7696  14703.2  120.335
 18.9676  14327.3  118.599
 19.1656  14270.6  118.926
 19.3636  14043.8  118.177
 19.5616  13969.9  118.036
 19.7596  14203.2  118.421
 19.9576  14535.7  119.855
 20.1556  14042.9  118.321
 20.3536  13623.7  115.928
 20.5516  13332.8  115.127
 20.7496  13069.6  113.922
 20.9476  12960.7  113.202
 21.1456  13258.4  114.824
 21.3436  12906.2  113.241
 21.5416  12892.4  113.189
 21.7396  12921.1  113.15
 21.9376  12807  112.417
 22.1356  12745.2  112.274
 22.3336  12706.2  112.394
 22.5316  12747.2  112.656
 22.7296  12688.6  111.763
 22.9276  12577.7  111.945
 23.1256  12803.4  112.421
 23.3236  12728  112.644
 23.5216  12535.4  111.453
 23.7196  12382.1  110.717
 23.9176  12352.6  110.331
 24.1156  12241.2  110.312
 24.3136  11754.4  108.882
 24.5116  11801.1  108.63
 24.7096  11569.2  107.377
 24.9076  11361.3  106.428
 25.1056  11129.2  105.802
 25.3036  11088.4  105.117
 25.5016  11035.5  104.9
 25.6996  11019.4  104.405
 25.8976  10968.3  104.595
 26.0956  11048.5  104.998
 26.2936  11001.1  104.415
 26.4916  10900  103.82
 26.6896  10633.7  102.839
 26.8876  10488.5  101.988
 27.0856  10664.1  102.887
 27.2836  10398.9  101.496
 27.4816  10359  101.234
 27.6796  10247.2  101.063
 27.8776  10263.3  100.99
 28.0756  10243.4  101.187
 28.2736  10067  99.8977
 28.4716  9891.11  99.0588
 28.6696  10012.7  99.5219
 28.8676  9768.88  98.6466
 29.0656  9756.31  98.5646
 29.2636  9760.18  98.3772
 29.4616  9715.6  98.3347
 29.6596  9716.09  97.9016
 29.8576  9445.83  97.2123
 30.0556  9580.98  97.7795
 30.2536  9776.94  98.5681
 30.4516  9562.53  97.1351
 30.6496  9536.77  96.7298
 30.8476  9312.08  96.0241
 31.0456  9314.5  95.9947
 31.2436  9311.27  95.2505
 31.4416  9201.34  94.8638
 31.6396  9233.92  95.0809
 31.8376  9309.07  95.0154
 32.0356  9181.61  94.9207
 32.2336  9001.71  93.3816
 32.4316  8967.43  93.6079
 32.6296  8962.25  93.4171
 32.8276  8981.32  93.2835
 33.0256  8945.14  93.1832
 33.2236  8807.65  92.6055
 33.4216  8892.29  92.7407
 33.6196  8927.71  93.2194
 33.8176  8802.25  92.7283
 34.0156  8732.32  91.9687
 34.2136  8724.96  91.9721
 34.4116  8658  91.7679
 34.6096  8749.78  92.1349
 34.8076  8591.65  91.7131
 35.0056  8617.7  91.5321
 35.2036  8483.86  91.0265
 35.4016  8487.89  90.9754
 35.5996  8384.46  90.4523
 35.7976  8467.65  91.1712
 35.9956  8419.69  90.5667
 36.1936  8429.6  90.4819
 36.3916  8264.79  89.7722
 36.5896  8216.99  90.4776
 36.7876  8271.54  90.1856
 36.9856  8261.77  90.1608
 37.1836  8138.8  88.5924
 37.3816  8213.82  89.3605
 37.5796  8216.98  91.1079
 37.7776  8066.21  88.6449
 37.9756  8030.57  88.3364
 38.1736  7991.28  88.307
 38.3716  8009.65  88.692
 38.5696  7951.08  88.7432
 38.7676  7752.19  87.1389
 38.9656  7874.58  87.4592
 39.1636  7757.43  87.0686
 39.3616  7956.35  88.1043
 39.5596  7780.68  87.9662
 39.7576  7842.58  87.6962
 39.9556  7968.3  88.0356
 40.1536  7991.16  88.3633
 40.3516  8030.19  88.5947
 40.5496  7929.06  88.2993
 40.7476  7918.73  88.243
 40.9456  8028.11  88.5943
 41.1436  7980.62  88.054
 41.3416  7920.79  88.0583
 41.5396  7757.41  86.9548
 41.7376  7900.78  88.0221
 41.9356  7846.38  87.5769
 42.1336  7870.92  87.8557
 42.3316  7725.19  87.24
 42.5296  7747.1  86.8827
 42.7276  7825.38  87.5611
 42.9256  7738.02  86.9426
 43.1236  7765.67  87.2028
 43.3216  7736.64  86.7929
 43.5196  7661.86  86.4353
 43.7176  7634.28  86.6717
 43.9156  7643.75  86.6295
 44.1136  7468.79  85.195
 44.3116  7570.91  85.7861
 44.5096  7431.34  85.3018
 44.7076  7552.94  85.9258
 44.9056  7469.14  85.3155
 45.1036  7313.96  84.0578
 45.3016  7430.8  85.2205
 45.4996  7391.85  84.9396
 45.6976  7179.56  83.8842
 45.8956  7362.59  84.7665
 46.0936  7339.71  84.6399
 46.2916  7438.18  85.1844
 46.4896  7323.1  84.5569
 46.6876  7330.92  85.312
 46.8856  7140.03  83.4589
 47.0836  7094.56  83.4379
 47.2816  6951.95  82.4787
 47.4796  7171.78  83.8749
 47.6776  6979.55  83.6796
 47.8756  6939.07  82.6248
 48.0736  7027.93  83.5988
 48.2716  6883.86  82.5617
 48.4696  6890.83  82.2014
 48.6676  6937.29  83.0505
 48.8656  6958.48  82.9103
 49.0636  6957.29  82.8522
 49.2616  6774.29  81.7951
 49.4596  6884.29  82.0261
 49.6576  6821.14  81.8698
 49.8556  6815.29  81.8533
 50.0536  6740.66  81.8343
 50.2516  6770.21  82.1531
 50.4496  6672.06  81.2167
 50.6476  6821.88  81.8109
 50.8456  6618.69  80.6697
 51.0436  6470.2  80.1868
 51.2416  6547.2  80.3417
 51.4396  6514.24  80.5242
 51.6376  6576.9  80.7418
 51.8356  6459.66  79.6601
 52.0336  6330.34  79.3519
 52.2316  6405.48  80.1669
 52.4296  6432.83  80.0321
 52.6276  6395.14  79.9096
 52.8256  6428.7  79.669
 53.0236  6403.5  80.1677
 53.2216  6296.9  79.5275
 53.4196  6231.93  79.0472
 53.6176  6261  79.7005
 53.8156  6194.06  78.9505
 54.0136  6290.96  79.736
 54.2116  6238.66  79.0739
 54.4096  6241.81  79.1425
 54.6076  6222.53  79.3643
 54.8056  6170.36  78.8236
 55.0036  6119.1  78.8785
 55.2016  6194.61  78.9167
 55.3996  6221.64  79.0542
 55.5976  6193.45  79.0627
 55.7956  6216.37  79.0276
 55.9936  6135.65  78.6419
 56.1916  6196.98  79.0631
 56.3896  6199.64  79.0647
 56.5876  6035.95  78.5595
 56.7856  5985.02  77.7195
 56.9836  6142.42  78.52
 57.1816  6053.46  78.3208
 57.3796  6112.11  78.5006
 57.5776  6141.75  78.6213
 57.7756  6082.39  78.8743
 57.9736  6053.96  78.3637
 58.1716  6118.83  79.0236
 58.3696  6037.23  78.248
 58.5676  6097.01  78.1109
 58.7656  6054.84  78.5114
 58.9636  6075.36  78.6758
 59.1616  6053.37  78.648
 59.3596  6175.45  78.7029
 59.5576  6044.56  77.9209
 59.7556  6167.26  79.1305
 59.9536  6203.95  79.263
 60.1516  6001.88  78.8076
 60.1996  0.0000000E+00  0.0000000E+00