File: docs/examples/opeando_xrd/IS17_D/Data/IS17_D/17_Db_f00033.xye
# /beamlines/bl04/projects/cycle2025-II/20250340211-lsimonelli/DATA/IS17_D/17_Db_f00033.xye : mythproc.py merge -s 0.006 -l 0.5 -f /beamlines/bl04/inhouse/ff/FlatField/ff_20Nov2024rod8mm60s_17keV.raw -b True -c true -o xye /beamlines/bl04/projects/cycle2025-II/20250340211-lsimonelli/DATA/IS17_D/17_Db_00033.dat
# IsMon = [6747240, 6746103, 6745527]  IsPos = [-1.5000, -2.4885, -3.4986]
# Wave = 0.4962  CalPath /beamlines/bl04/projects/cycle2025-II/20250340211-lsimonelli/DATA/Align/Si_Pos1_25keV_f00001.cal
# Date = 2025-09-24_02:54:18 Dt = 4.8000  Bin = 0.0060  <imon> = 6746290 +/- 712 (Min/Max) 6745527 / 6747240
# icurr 249.2606  mocoIn 1.7011E-05  mocoOut 0.7981  i15 7.06742e+06  imon 6.74629e+06  i7 6.3333  iEMpd_timer 4.8000  iEMpd_1 3.5379E-08  iEMpd_2 7.6921E-08  iEMpd_3 1.5769E-08  iEMpd_4 4.7264E-08  iEMhp_timer 4.8000  iEMhp_1 4.8722E-06  iEMhp_2 -2.5873E-08  iEMhp_3 -2.3561E-08  iEMhp_4 -2.1874E-08
#      9776
 1.7416  70829.4  266.195
 1.9396  48145.7  219.749
 2.1376  34973.5  187.29
 2.3356  31384.9  177.048
 2.5336  29157.4  171.251
 2.7316  26698.2  163.993
 2.9296  25668.9  160.96
 3.1276  25083  158.645
 3.3256  24347.3  155.974
 3.5236  26072.5  161.355
 3.7216  23635.3  154.726
 3.9196  23058.7  152.038
 4.1176  23129.4  152.062
 4.3156  24140.3  155.523
 4.5136  26302.1  161.322
 4.7116  27563.3  166.282
 4.9096  26792.2  163.37
 5.1076  26601.5  163.361
 5.3056  26482.6  162.614
 5.5036  26038.7  161.29
 5.7016  26473.9  162.569
 5.8996  27060  163.602
 6.0976  28023.4  167.883
 6.2956  28067.2  167.384
 6.4936  28684.4  168.414
 6.6916  29036.1  170.42
 6.8896  29674.1  172.134
 7.0876  31175.3  177.075
 7.2856  30519.9  174.366
 7.4836  30928.8  174.881
 7.6816  31720.1  177.61
 7.8796  32303.7  179.263
 8.0776  33622  183.845
 8.2756  35228.7  186.832
 8.4736  35961.9  188.578
 8.6716  34828.1  186.185
 8.8696  35580.2  188.671
 9.0676  34839.4  186.037
 9.2656  33795.3  183.901
 9.4636  32774.5  179.614
 9.6616  31903  177.921
 9.8596  31803.5  177.082
 10.0576  29429.8  170.998
 10.2556  28780.5  169.544
 10.4536  27798  166.234
 10.6516  27256.6  164.809
 10.8496  26116  160.763
 11.0476  25286.9  158.153
 11.2456  24539.5  156.367
 11.4436  24998.8  157.008
 11.6416  25232  158.08
 11.8396  23689.3  153.365
 12.0376  23093.6  151.073
 12.2356  22948.3  151.044
 12.4336  22762.5  149.961
 12.6316  22737.9  150.122
 12.8296  22747.7  149.776
 13.0276  23094.5  151.133
 13.2256  23438.6  152.609
 13.4236  23177.4  151.528
 13.6216  23601.5  152.906
 13.8196  25631.5  158.808
 14.0176  22693.5  150.016
 14.2156  22136.5  147.216
 14.4136  21387.6  146.06
 14.6116  20906.5  143.625
 14.8096  20320.7  141.585
 15.0076  19387.5  142.094
 15.2056  18433.7  134.482
 15.4036  17769.1  132.844
 15.6016  17212.7  129.866
 15.7996  16817.2  128.632
 15.9976  16586.7  130.563
 16.1956  16207.9  127.004
 16.3936  15804.2  124.618
 16.5916  15658.8  124.676
 16.7896  15650.5  124.693
 16.9876  15442.2  125.274
 17.1856  15332.2  123.245
 17.3836  14942.5  121.582
 17.5816  14545.1  120.424
 17.7796  14350.3  119.543
 17.9776  13958.1  118.657
 18.1756  14072.5  117.923
 18.3736  13881.4  117.589
 18.5716  13572.7  116.031
 18.7696  13679.4  116.062
 18.9676  13633  115.657
 19.1656  13182.7  114.313
 19.3636  13083.3  114.07
 19.5616  13144.1  114.5
 19.7596  13463.7  115.288
 19.9576  13547.9  115.69
 20.1556  13901.6  117.714
 20.3536  13184.4  114.041
 20.5516  12779.9  112.707
 20.7496  12647.2  111.973
 20.9476  12600.5  111.613
 21.1456  12477.6  111.397
 21.3436  12401  110.996
 21.5416  12182.5  110.028
 21.7396  12085.5  109.437
 21.9376  11888.1  108.322
 22.1356  12097.5  109.415
 22.3336  11698.4  107.831
 22.5316  11832.8  108.556
 22.7296  11844.3  107.988
 22.9276  11747.8  108.201
 23.1256  11931.4  108.539
 23.3236  12252.7  110.544
 23.5216  11930.3  108.72
 23.7196  12142.4  109.848
 23.9176  11963.6  108.581
 24.1156  11791.1  108.251
 24.3136  11522.7  107.796
 24.5116  11513.1  107.286
 24.7096  11176.6  105.512
 24.9076  11082.6  105.1
 25.1056  10752.7  103.72
 25.3036  10591  102.716
 25.5016  10448.3  102.069
 25.6996  10524.7  102.038
 25.8976  10652.1  103.069
 26.0956  10389.3  101.807
 26.2936  10401.7  101.538
 26.4916  10768.8  103.184
 26.6896  10233.2  100.871
 26.8876  10066  99.8931
 27.0856  10015  99.6636
 27.2836  9898.93  99.1813
 27.4816  9896.86  98.9443
 27.6796  9751.81  98.5624
 27.8776  10011.2  99.7346
 28.0756  9621.2  98.0645
 28.2736  9659.48  97.8445
 28.4716  9471.05  96.9366
 28.6696  9451.44  96.692
 28.8676  9425.42  96.8987
 29.0656  9237.74  95.9079
 29.2636  9251.15  95.6919
 29.4616  8971.09  94.4969
 29.6596  9044.03  94.4603
 29.8576  8833.79  94.0127
 30.0556  8829.35  93.8716
 30.2536  8965.04  94.3878
 30.4516  9102.27  94.7533
 30.6496  9119.13  94.5834
 30.8476  9045.48  94.6248
 31.0456  9137.59  95.0766
 31.2436  8985.11  93.5548
 31.4416  9082.75  94.2462
 31.6396  8926.38  93.4633
 31.8376  8935.97  93.0637
 32.0356  8819.04  93.0043
 32.2336  8827.17  92.4658
 32.4316  8525.28  91.2621
 32.6296  8572.43  91.2885
 32.8276  8642.15  91.5125
 33.0256  8414.53  90.3587
 33.2236  8564.02  91.3079
 33.4216  8410.46  90.1858
 33.6196  8500.54  90.9422
 33.8176  8377.71  90.4591
 34.0156  8269.19  89.5056
 34.2136  8404.56  90.2593
 34.4116  8123.01  88.896
 34.6096  8228.03  89.3414
 34.8076  8143.87  89.2965
 35.0056  8189.51  89.2221
 35.2036  8265.7  89.8581
 35.4016  8034.7  88.5004
 35.5996  8042.68  88.5774
 35.7976  8056.19  88.9176
 35.9956  8140.09  89.0425
 36.1936  8118.24  88.7742
 36.3916  7876.34  87.6364
 36.5896  7998.15  89.7396
 36.7876  7674.05  86.8721
 36.9856  7656.61  86.7953
 37.1836  7749.49  86.4509
 37.3816  7601.31  85.9745
 37.5796  7738.76  88.4202
 37.7776  7906.59  87.7672
 37.9756  7896.57  87.5977
 38.1736  7778.7  87.1298
 38.3716  7807.11  87.5459
 38.5696  7721.19  87.4404
 38.7676  7591.41  86.2242
 38.9656  7690.53  86.4228
 39.1636  7641.58  86.3833
 39.3616  7563.98  85.9092
 39.5596  7380.12  85.6715
 39.7576  7518.78  85.8694
 39.9556  7585.03  85.8987
 40.1536  7576.22  86.0393
 40.3516  7570.38  86.0945
 40.5496  7660.92  86.5647
 40.7476  7644.91  86.6888
 40.9456  7694.99  86.7318
 41.1436  7748.66  86.7618
 41.3416  7447.58  85.3872
 41.5396  7506.06  85.5299
 41.7376  7520.29  85.8634
 41.9356  7511.41  85.6741
 42.1336  7658.93  86.6529
 42.3316  7455.83  85.6992
 42.5296  7538.83  85.7038
 42.7276  7549.45  85.9962
 42.9256  7509.75  85.6491
 43.1236  7352.55  84.8352
 43.3216  7483.2  85.4554
 43.5196  7401.2  84.9378
 43.7176  7445.35  85.5703
 43.9156  7200.12  84.0898
 44.1136  7227.69  83.812
 44.3116  7293.56  84.2096
 44.5096  7271.81  84.3859
 44.7076  7159.56  83.6625
 44.9056  7364.85  84.7189
 45.1036  7251.95  83.6924
 45.3016  7355.1  84.785
 45.4996  7382.17  84.8835
 45.6976  7016.86  82.927
 45.8956  7230.81  83.9944
 46.0936  7397.34  84.7174
 46.2916  7319.24  84.4926
 46.4896  7235.06  84.0279
 46.6876  7111.59  84.0049
 46.8856  7179.06  83.8042
 47.0836  7074.93  83.3196
 47.2816  7069.68  83.17
 47.4796  7132.99  83.648
 47.6776  6973.8  83.647
 47.8756  7125.44  83.7221
 48.0736  7134.12  84.2105
 48.2716  6975.24  83.1009
 48.4696  7195.87  83.995
 48.6676  7134.03  84.2278
 48.8656  7153.79  84.0688
 49.0636  7201.73  84.2926
 49.2616  6951.03  82.8528
 49.4596  7010.71  82.7737
 49.6576  6925.8  82.4908
 49.8556  7050.63  83.2546
 50.0536  6946.73  83.0866
 50.2516  6917.02  83.0116
 50.4496  6961.12  82.9587
 50.6476  6944.33  82.5407
 50.8456  6978.5  82.8308
 51.0436  6734.88  81.8165
 51.2416  6787.48  81.812
 51.4396  6590.94  81.0111
 51.6376  6676.52  81.3601
 51.8356  6693.61  81.0923
 52.0336  6776.3  82.0955
 52.2316  6699.02  81.9772
 52.4296  6700.43  81.6958
 52.6276  6555.53  80.9031
 52.8256  6707.82  81.4076
 53.0236  6813.15  82.6844
 53.2216  6621.09  81.5201
 53.4196  6681.75  81.8127
 53.6176  6656.27  82.1655
 53.8156  6684.05  82.0114
 54.0136  6261.25  79.5294
 54.2116  6516.48  80.7893
 54.4096  6403.79  80.1559
 54.6076  6359.82  80.2238
 54.8056  6321.63  79.7377
 55.0036  6357.76  80.2483
 55.2016  6347.17  79.7423
 55.3996  6138.1  78.4975
 55.5976  6260.67  79.4676
 55.7956  6162.35  78.6615
 55.9936  6388.47  80.2078
 56.1916  6186.03  78.983
 56.3896  6051.44  78.0932
 56.5876  6022.56  78.4358
 56.7856  6032.85  78.0228
 56.9836  6087.92  78.1431
 57.1816  6238.24  79.474
 57.3796  5889.48  77.0116
 57.5776  6092.37  78.2513
 57.7756  5872.51  77.4815
 57.9736  5875.65  77.1688
 58.1716  5917.78  77.7119
 58.3696  5622.47  75.5169
 58.5676  5718.02  75.6426
 58.7656  5690.56  76.1168
 58.9636  5654.63  75.9001
 59.1616  5824.12  77.1604
 59.3596  5669.92  75.4204
 59.5576  5737.29  75.923
 59.7556  5647.6  75.7317
 59.9536  5766.89  76.4285
 60.1516  5672.71  76.6246
 60.1996  0.0000000E+00  0.0000000E+00