File: docs/examples/opeando_xrd/IS17_D/Data/IS17_D/17_Da_f00118.xye
# /beamlines/bl04/projects/cycle2025-II/20250340211-lsimonelli/DATA/IS17_D/17_Da_f00118.xye : mythproc.py merge -s 0.006 -l 0.5 -f /beamlines/bl04/inhouse/ff/FlatField/ff_20Nov2024rod8mm60s_17keV.raw -b True -c true -o xye /beamlines/bl04/projects/cycle2025-II/20250340211-lsimonelli/DATA/IS17_D/17_Da_00118.dat
# IsMon = [6769209, 6771393, 6771546]  IsPos = [-1.4999, -2.4884, -3.4988]
# Wave = 0.4962  CalPath /beamlines/bl04/projects/cycle2025-II/20250340211-lsimonelli/DATA/Align/Si_Pos1_25keV_f00001.cal
# Date = 2025-09-25_02:26:50 Dt = 4.8000  Bin = 0.0060  <imon> = 6770716 +/- 1067 (Min/Max) 6769209 / 6771546
# icurr 250.9725  mocoIn 1.7120E-05  mocoOut 0.8035  i15 7.09151e+06  imon 6.77072e+06  i7 7.0000  iEMpd_timer 4.8000  iEMpd_1 3.5921E-08  iEMpd_2 7.8673E-08  iEMpd_3 1.6974E-08  iEMpd_4 4.9623E-08  iEMhp_timer 4.8000  iEMhp_1 4.9029E-06  iEMhp_2 -2.5329E-08  iEMhp_3 -2.6039E-08  iEMhp_4 -2.1555E-08
#      9776
 1.7416  70510.2  265.643
 1.9396  46401.8  215.769
 2.1376  33289.5  182.759
 2.3356  29795.2  172.538
 2.5336  27873.4  167.468
 2.7316  26137.5  162.26
 2.9296  25057.1  159.047
 3.1276  24815.9  157.822
 3.3256  24437.4  156.272
 3.5236  26134.4  161.405
 3.7216  23723  155.028
 3.9196  23298.1  152.863
 4.1176  23132.3  152.084
 4.3156  24433.3  156.464
 4.5136  26747.5  162.681
 4.7116  27825.6  167.076
 4.9096  27277.7  164.857
 5.1076  26862.5  164.18
 5.3056  27290.7  165.207
 5.5036  27019.2  164.276
 5.7016  27350.7  165.251
 5.8996  27998.7  166.405
 6.0976  28636.2  169.741
 6.2956  29294.1  171.001
 6.4936  29996.8  172.228
 6.6916  30295.8  174.09
 6.8896  31075.2  176.174
 7.0876  32211.5  180.101
 7.2856  32221.9  179.176
 7.4836  32491.1  179.252
 7.6816  33553  182.702
 7.8796  34809.5  186.073
 8.0776  36237  190.844
 8.2756  38187.4  194.497
 8.4736  38770.3  195.784
 8.6716  38058.6  194.619
 8.8696  37991.2  194.934
 9.0676  37498.9  193.026
 9.2656  36133.3  190.167
 9.4636  36033  188.285
 9.6616  35045.3  186.474
 9.8596  33832.6  182.682
 10.0576  32134.9  178.711
 10.2556  30790.6  175.377
 10.4536  29685.9  171.803
 10.6516  28959.8  169.884
 10.8496  28196.1  167.034
 11.0476  27409.1  164.714
 11.2456  26808.4  163.431
 11.4436  27068  163.385
 11.6416  27358  164.628
 11.8396  25302.4  158.528
 12.0376  25194.2  157.818
 12.2356  24495.4  156.017
 12.4336  24651.9  156.059
 12.6316  24289.7  155.18
 12.8296  24553.1  155.652
 13.0276  25316.6  158.235
 13.2256  25449.3  159.021
 13.4236  25042.5  157.513
 13.6216  24690.6  156.421
 13.8196  24974.3  157.08
 14.0176  24697.8  156.492
 14.2156  24084.1  153.578
 14.4136  23028.3  151.548
 14.6116  22663.2  149.551
 14.8096  22049.7  147.498
 15.0076  20701.4  146.764
 15.2056  20520.8  141.884
 15.4036  19270.4  138.32
 15.6016  19118.3  136.851
 15.7996  18382  134.473
 15.9976  17845.8  135.472
 16.1956  17316.2  131.306
 16.3936  17012.2  129.315
 16.5916  16774.4  129.048
 16.7896  16891.8  129.559
 16.9876  16651.9  130.116
 17.1856  16533.5  127.99
 17.3836  15909.2  125.446
 17.5816  15347.2  123.708
 17.7796  15225.9  123.148
 17.9776  15042.3  123.196
 18.1756  15147.4  122.314
 18.3736  14774.2  121.315
 18.5716  14677.5  120.667
 18.7696  14732.8  120.465
 18.9676  14349.1  118.691
 19.1656  14416.3  119.532
 19.3636  14352.3  119.468
 19.5616  14183.4  118.932
 19.7596  14245.8  118.597
 19.9576  14667.7  120.397
 20.1556  15051.6  122.5
 20.3536  14250.3  118.567
 20.5516  13784.2  117.064
 20.7496  13566.8  116.067
 20.9476  13392.6  115.076
 21.1456  13506.9  115.899
 21.3436  13318  115.036
 21.5416  13147  114.297
 21.7396  13075.9  113.827
 21.9376  12924.5  112.935
 22.1356  13062.7  113.657
 22.3336  12948.6  113.457
 22.5316  13083.1  114.129
 22.7296  13164.2  113.826
 22.9276  12915.1  113.439
 23.1256  13110.4  113.755
 23.3236  12963.2  113.703
 23.5216  12929.8  113.196
 23.7196  12621.8  111.79
 23.9176  12659  111.703
 24.1156  12512.6  111.532
 24.3136  12110.9  110.523
 24.5116  12198.7  110.446
 24.7096  11598  107.509
 24.9076  11608.2  107.587
 25.1056  11353.2  106.862
 25.3036  11441.1  106.774
 25.5016  11278.9  106.052
 25.6996  11394  106.164
 25.8976  11272.8  106.042
 26.0956  11156.1  105.509
 26.2936  11182  105.273
 26.4916  11293.8  105.68
 26.6896  10904  104.137
 26.8876  10814.3  103.558
 27.0856  10778.8  103.443
 27.2836  10626.4  102.599
 27.4816  10458.1  101.715
 27.6796  10477.8  102.192
 27.8776  10320.3  101.277
 28.0756  10435.4  102.128
 28.2736  10307.8  101.083
 28.4716  10033.8  99.7804
 28.6696  10192.3  100.41
 28.8676  10006.3  99.8401
 29.0656  9919.7  99.3869
 29.2636  9946.33  99.3127
 29.4616  9687.68  98.1885
 29.6596  9914.5  98.8926
 29.8576  9626.49  98.1341
 30.0556  9773.13  98.7537
 30.2536  9814.61  98.7538
 30.4516  9635.25  97.5074
 30.6496  9666.06  97.3878
 30.8476  9787.84  98.4494
 31.0456  9615.23  97.5369
 31.2436  9451.04  95.9667
 31.4416  9313.27  95.4411
 31.6396  9432.69  96.0937
 31.8376  9421.35  95.5856
 32.0356  9232.53  95.1842
 32.2336  9197.33  94.3938
 32.4316  9152.8  94.5697
 32.6296  9110.05  94.185
 32.8276  9241.68  94.6258
 33.0256  9078.14  93.8678
 33.2236  8968.37  93.4489
 33.4216  9191.8  94.2921
 33.6196  9120.84  94.2201
 33.8176  8989.93  93.7093
 34.0156  8998.82  93.3695
 34.2136  8894.07  92.8631
 34.4116  8857.09  92.8212
 34.6096  8757.04  92.1741
 34.8076  8718.5  92.3768
 35.0056  8780.83  92.3942
 35.2036  8736.72  92.3723
 35.4016  8700.15  92.1015
 35.5996  8491.18  91.0283
 35.7976  8459.44  91.1389
 35.9956  8733.2  92.2299
 36.1936  8570.78  91.232
 36.3916  8547.24  91.2983
 36.5896  8426.53  91.6179
 36.7876  8491.27  91.3728
 36.9856  8344.22  90.6045
 37.1836  8454.82  90.2924
 37.3816  8402.75  90.3774
 37.5796  8156.05  90.7799
 37.7776  8233.37  89.5673
 37.9756  8180.22  89.1561
 38.1736  8222.52  89.5876
 38.3716  8225.85  89.8836
 38.5696  8208.02  90.1687
 38.7676  7932.11  88.1412
 38.9656  8114.48  88.7828
 39.1636  8020.14  88.5338
 39.3616  8182.84  89.3524
 39.5596  7909.69  88.6893
 39.7576  8086.02  89.0461
 39.9556  8064.07  88.559
 40.1536  8080.07  88.8596
 40.3516  8147.87  89.2385
 40.5496  8149.37  89.5068
 40.7476  8187.24  89.7282
 40.9456  8171.4  89.3797
 41.1436  8246.99  89.5136
 41.3416  8097.8  89.036
 41.5396  7985.9  88.2227
 41.7376  7970.87  88.4104
 41.9356  7956.1  88.1854
 42.1336  8026.19  88.7229
 42.3316  8047.15  89.037
 42.5296  8087.93  88.7677
 42.7276  8024.12  88.6608
 42.9256  8044.82  88.6426
 43.1236  7898.1  87.9433
 43.3216  7965.61  88.0692
 43.5196  7865.82  87.5786
 43.7176  7805.23  87.6347
 43.9156  7763.51  87.3042
 44.1136  7681.32  86.396
 44.3116  7765.58  86.8815
 44.5096  7688.66  86.763
 44.7076  7718.51  86.8546
 44.9056  7580.2  85.9517
 45.1036  7594.37  85.6566
 45.3016  7567.07  86.0042
 45.4996  7486.59  85.4851
 45.6976  7340.93  84.8236
 45.8956  7600.29  86.1222
 46.0936  7504.09  85.5838
 46.2916  7376.57  84.8288
 46.4896  7504.3  85.5762
 46.6876  7362.71  85.4976
 46.8856  7378.89  84.849
 47.0836  7289.64  84.5836
 47.2816  7221.51  84.0597
 47.4796  7315.51  84.7111
 47.6776  7222.93  85.1163
 47.8756  7211.76  84.2315
 48.0736  7159.26  84.3813
 48.2716  7021.15  83.3782
 48.4696  7079  83.3067
 48.6676  7044.47  83.6907
 48.8656  7145.93  84.0156
 49.0636  7078.36  83.5781
 49.2616  6931.75  82.7436
 49.4596  7076.74  83.1606
 49.6576  6992.43  82.8842
 49.8556  6913.8  82.4428
 50.0536  6937.46  83.0288
 50.2516  6867.11  82.7386
 50.4496  6819.59  82.1076
 50.6476  6878.19  82.147
 50.8456  6762.39  81.5329
 51.0436  6793.61  82.1644
 51.2416  6679.84  81.1482
 51.4396  6550.65  80.7557
 51.6376  6655.29  81.2194
 51.8356  6699.95  81.1211
 52.0336  6623.06  81.1708
 52.2316  6441.86  80.3958
 52.4296  6693.14  81.6419
 52.6276  6590.83  81.1239
 52.8256  6645.43  81.0177
 53.0236  6482.18  80.6577
 53.2216  6541.17  81.0565
 53.4196  6411.75  80.1792
 53.6176  6454.35  80.9177
 53.8156  6455.84  80.5883
 54.0136  6429.89  80.6169
 54.2116  6377.51  79.9489
 54.4096  6405.97  80.1759
 54.6076  6285.28  79.7669
 54.8056  6316.41  79.7506
 55.0036  6347.53  80.343
 55.2016  6336.89  79.8135
 55.3996  6397.57  80.1637
 55.5976  6358.54  80.1098
 55.7956  6348.48  79.8552
 55.9936  6252.66  79.3951
 56.1916  6273.89  79.5504
 56.3896  6283.93  79.6003
 56.5876  6220.73  79.7502
 56.7856  6264.99  79.5167
 56.9836  6115.62  78.3505
 57.1816  6227.72  79.4388
 57.3796  6300.5  79.698
 57.5776  6257.89  79.3569
 57.7756  6227.46  79.8073
 57.9736  6186.94  79.2223
 58.1716  6272.9  80.0097
 58.3696  6194.06  79.2554
 58.5676  6286.24  79.3051
 58.7656  6158.23  79.1758
 58.9636  6214.78  79.5711
 59.1616  6193.38  79.5573
 59.3596  6375.75  79.9682
 59.5576  6166.9  78.705
 59.7556  6206.57  79.3817
 59.9536  6337.15  80.1088
 60.1516  6358.32  81.1134
 60.1996  0.0000000E+00  0.0000000E+00