File: docs/examples/opeando_xrd/IS17_D/Data/IS17_D/17_Da_f00008.xye
# /beamlines/bl04/projects/cycle2025-II/20250340211-lsimonelli/DATA/IS17_D/17_Da_f00008.xye : mythproc.py merge -s 0.006 -l 0.5 -f /beamlines/bl04/inhouse/ff/FlatField/ff_20Nov2024rod8mm60s_17keV.raw -b True -c true -o xye /beamlines/bl04/projects/cycle2025-II/20250340211-lsimonelli/DATA/IS17_D/17_Da_00008.dat
# IsMon = [6760389, 6764579, 6763314]  IsPos = [-1.5000, -2.4884, -3.4988]
# Wave = 0.4962  CalPath /beamlines/bl04/projects/cycle2025-II/20250340211-lsimonelli/DATA/Align/Si_Pos1_25keV_f00001.cal
# Date = 2025-09-23_19:47:02 Dt = 4.8000  Bin = 0.0060  <imon> = 6762761 +/- 1755 (Min/Max) 6760389 / 6764579
# icurr 250.8176  mocoIn 1.7109E-05  mocoOut 0.8030  i15 7.07316e+06  imon 6.76276e+06  i7 5.0000  iEMpd_timer 4.8000  iEMpd_1 3.5598E-08  iEMpd_2 7.8280E-08  iEMpd_3 1.6479E-08  iEMpd_4 4.8121E-08  iEMhp_timer 4.8000  iEMhp_1 4.9000E-06  iEMhp_2 -2.4740E-08  iEMhp_3 -2.4632E-08  iEMhp_4 -2.0770E-08
#      9776
 1.7416  68045.8  260.977
 1.9396  43289.9  208.424
 2.1376  30572  175.151
 2.3356  27222.3  164.931
 2.5336  29561.5  172.476
 2.7316  24319  156.524
 2.9296  22495.1  150.696
 3.1276  22134.7  149.05
 3.3256  21609.3  146.947
 3.5236  23719.5  153.762
 3.7216  21477.1  147.506
 3.9196  21585.6  147.134
 4.1176  21149.5  145.418
 4.3156  22323.4  149.553
 4.5136  25340  158.34
 4.7116  26107.4  161.837
 4.9096  25357.3  158.948
 5.1076  24754  157.607
 5.3056  24963  158.006
 5.5036  24743.4  157.201
 5.7016  24972.3  157.901
 5.8996  25397.6  158.487
 6.0976  26261  162.549
 6.2956  26752.3  163.413
 6.4936  27727.5  165.585
 6.6916  27998.1  167.359
 6.8896  29154.2  170.645
 7.0876  29958.1  173.616
 7.2856  29705.1  172.039
 7.4836  30585.1  173.914
 7.6816  31146.8  176.029
 7.8796  32581.3  180.017
 8.0776  36575.1  191.726
 8.2756  36889.3  191.156
 8.4736  36658  190.37
 8.6716  36076.7  189.475
 8.8696  37415.8  193.459
 9.0676  36576.7  190.642
 9.2656  34000.1  184.481
 9.4636  33249.6  180.876
 9.6616  32486.5  179.543
 9.8596  31383.9  175.948
 10.0576  29674.6  171.729
 10.2556  28420.2  168.483
 10.4536  33219.5  181.739
 10.6516  33120.3  181.68
 10.8496  26531.7  162.034
 11.0476  26785.8  162.822
 11.2456  29197.4  170.556
 11.4436  25971.3  160.036
 11.6416  24623.2  156.173
 11.8396  23701  153.428
 12.0376  23379.8  152.03
 12.2356  25007.1  157.633
 12.4336  24103.5  154.311
 12.6316  22672.5  149.925
 12.8296  23414.9  152
 13.0276  23764.5  153.301
 13.2256  23221.3  151.897
 13.4236  23508.4  152.602
 13.6216  23223.7  151.706
 13.8196  24099.9  154.306
 14.0176  23146.6  151.494
 14.2156  22679.1  149.02
 14.4136  21322.7  145.844
 14.6116  21031.7  144.063
 14.8096  20190.3  141.14
 15.0076  19430  142.179
 15.2056  18771.6  135.698
 15.4036  18127.6  134.155
 15.6016  17658.6  131.513
 15.7996  17367.6  130.704
 15.9976  16418.1  129.939
 16.1956  16238.3  127.159
 16.3936  15634.4  123.974
 16.5916  15764.9  125.108
 16.7896  15588.6  124.467
 16.9876  15424  125.224
 17.1856  15383.7  123.457
 17.3836  14320.1  119.017
 17.5816  14302.8  119.421
 17.7796  14715.3  121.061
 17.9776  14652.2  121.592
 18.1756  16091.7  126.082
 18.3736  15413.3  123.909
 18.5716  13989  117.803
 18.7696  13946.8  117.201
 18.9676  13683.6  115.909
 19.1656  13654.4  116.326
 19.3636  13332.2  115.146
 19.5616  13473.8  115.927
 19.7596  13453.4  115.25
 19.9576  14028.1  117.733
 20.1556  13187.2  114.658
 20.3536  13045.4  113.427
 20.5516  12721.9  112.45
 20.7496  12468.4  111.193
 20.9476  13167.3  114.103
 21.1456  13142.9  114.316
 21.3436  12517.6  111.526
 21.5416  12544.6  111.647
 21.7396  12166.7  109.801
 21.9376  12501.8  111.071
 22.1356  12444.4  111.085
 22.3336  12395.1  110.998
 22.5316  12343.7  110.857
 22.7296  12022.1  108.782
 22.9276  11953.6  109.132
 23.1256  12561  111.348
 23.3236  12093.9  109.816
 23.5216  12019.1  109.142
 23.7196  12011.4  109.253
 23.9176  11876.5  108.195
 24.1156  11801.9  108.322
 24.3136  11542  107.898
 24.5116  11625.9  107.82
 24.7096  11234.9  105.813
 24.9076  11231.4  105.828
 25.1056  10932  104.86
 25.3036  10774.4  103.61
 25.5016  10881.5  104.167
 25.6996  10844.6  103.573
 25.8976  10858.5  104.075
 26.0956  10799.8  103.807
 26.2936  10659.5  102.778
 26.4916  10771.5  103.199
 26.6896  10426.2  101.831
 26.8876  10291.1  101.025
 27.0856  10311  101.175
 27.2836  10069.8  99.8744
 27.4816  10105.5  99.9861
 27.6796  10032.2  99.9966
 27.8776  10244.6  100.907
 28.0756  10007.2  100.011
 28.2736  9954.48  99.3374
 28.4716  9610.07  97.6492
 28.6696  9681.85  97.8644
 28.8676  9525.86  97.4137
 29.0656  9417.32  96.8349
 29.2636  9423.06  96.6608
 29.4616  9254.97  95.963
 29.6596  9347.86  96.0222
 29.8576  9191.13  95.8862
 30.0556  9477.93  97.2434
 30.2536  9153.22  95.366
 30.4516  9248.1  95.5321
 30.6496  9138.91  94.6946
 30.8476  9052.01  94.6798
 31.0456  9060.36  94.6879
 31.2436  9113.32  94.2424
 31.4416  8870.45  93.1401
 31.6396  9353.83  95.6958
 31.8376  8963.92  93.2317
 32.0356  8914.33  93.5287
 32.2336  8701.51  91.8173
 32.4316  8818.92  92.8261
 32.6296  8708.77  92.0817
 32.8276  8754.59  92.1095
 33.0256  8636.74  91.5583
 33.2236  8682.09  91.9453
 33.4216  8675.02  91.6025
 33.6196  8623.04  91.6104
 33.8176  8574.67  91.5136
 34.0156  8461.85  90.5311
 34.2136  8456  90.5446
 34.4116  8381.58  90.2852
 34.6096  8486.93  90.743
 34.8076  8247.79  89.844
 35.0056  8335.78  90.0261
 35.2036  8224.72  89.6285
 35.4016  8290.42  89.9055
 35.5996  8214.34  89.5309
 35.7976  8158.96  89.4991
 35.9956  8309.32  89.9644
 36.1936  8198.1  89.236
 36.3916  8106.21  88.9035
 36.5896  8158.11  90.1476
 36.7876  8130.33  89.4069
 36.9856  8015.08  88.796
 37.1836  7916.62  87.3687
 37.3816  7961.42  87.9716
 37.5796  7914.05  89.4151
 37.7776  7812.25  87.2507
 37.9756  7756.5  86.826
 38.1736  8017.24  88.4654
 38.3716  7894.86  88.0572
 38.5696  7702.51  87.345
 38.7676  7615.23  86.3632
 38.9656  7679.85  86.3716
 39.1636  7643.46  86.4272
 39.3616  7863.71  87.5895
 39.5596  7598.46  86.9302
 39.7576  7633.29  86.5177
 39.9556  7715.86  86.6255
 40.1536  7756.75  87.064
 40.3516  7841.52  87.5478
 40.5496  7791.29  87.521
 40.7476  7745.24  87.2694
 40.9456  7759.16  87.0901
 41.1436  7733.62  86.6854
 41.3416  7781.81  87.2773
 41.5396  7710.79  86.6939
 41.7376  7655.94  86.6478
 41.9356  7571.07  86.027
 42.1336  7652.07  86.6331
 42.3316  7583.24  86.4305
 42.5296  7733.88  86.8075
 42.7276  7654.44  86.6001
 42.9256  7659.23  86.489
 43.1236  7587.42  86.1983
 43.3216  7611.76  86.0872
 43.5196  7464.02  85.313
 43.7176  7444.9  85.5897
 43.9156  7375.07  85.0884
 44.1136  7399.96  84.7962
 44.3116  7353.62  84.5415
 44.5096  7325.18  84.6846
 44.7076  7390.29  84.9899
 44.9056  7437.36  85.1406
 45.1036  7373.25  84.4024
 45.3016  7281.25  84.3697
 45.4996  7180.81  83.7239
 45.6976  6994.58  82.8002
 45.8956  7213.91  83.9058
 46.0936  7094.33  82.974
 46.2916  7138.29  83.4492
 46.4896  7232.38  84.0276
 46.6876  7064.02  83.7333
 46.8856  7074.49  83.0762
 47.0836  6973.68  82.7311
 47.2816  6884.07  82.0727
 47.4796  6991.81  82.8064
 47.6776  6901.77  83.2078
 47.8756  6863.67  82.1686
 48.0736  6835.7  82.4515
 48.2716  6686.69  81.3621
 48.4696  6946.59  82.5364
 48.6676  6876.87  82.7
 48.8656  6853.18  82.2895
 49.0636  7036.39  83.3247
 49.2616  6740.91  81.5907
 49.4596  6829.03  81.6883
 49.6576  6675.49  80.9843
 49.8556  6740.89  81.4055
 50.0536  6736.5  81.8149
 50.2516  6623.09  81.2517
 50.4496  6595.05  80.7414
 50.6476  6607.85  80.5158
 50.8456  6624.29  80.6966
 51.0436  6457.43  80.1037
 51.2416  6371.24  79.2515
 51.4396  6302.99  79.2022
 51.6376  6283.49  78.9121
 51.8356  6412.7  79.3661
 52.0336  6219.39  78.6617
 52.2316  6283.54  79.4084
 52.4296  6281.18  79.0851
 52.6276  6357.34  79.6765
 52.8256  6370.87  79.3385
 53.0236  6231.67  79.085
 53.2216  6155.71  78.6043
 53.4196  6188.47  78.7704
 53.6176  6000.36  78.0247
 53.8156  6162.38  78.7463
 54.0136  6218.03  79.2759
 54.2116  6027.64  77.7246
 54.4096  6157.58  78.5977
 54.6076  6064  78.3505
 54.8056  5940.44  77.3391
 55.0036  5990.16  77.9182
 55.2016  6042.17  77.8661
 55.3996  5944.13  77.2696
 55.5976  5938.26  77.4207
 55.7956  6024.75  77.8027
 55.9936  5920.32  77.2568
 56.1916  5957.79  77.5139
 56.3896  6041.27  78.0466
 56.5876  5919.43  77.7948
 56.7856  5965.31  77.5904
 56.9836  5917.89  77.0702
 57.1816  6027.81  78.1598
 57.3796  6030.72  77.9734
 57.5776  6004.65  77.7412
 57.7756  5968.22  78.1243
 57.9736  5972.47  77.8342
 58.1716  5995.9  78.2249
 58.3696  5960.64  77.7436
 58.5676  6058.82  77.8597
 58.7656  6000.07  78.1427
 58.9636  6088.16  78.7542
 59.1616  5995.78  78.2707
 59.3596  5981.77  77.4597
 59.5576  6108.43  78.3326
 59.7556  5859.21  77.1299
 59.9536  6092.56  78.5493
 60.1516  5982.72  78.6828
 60.1996  0.0000000E+00  0.0000000E+00