File: docs/examples/opeando_xrd/IS17_D/Data/IS17_D/17_Db_f00136.xye
# /beamlines/bl04/projects/cycle2025-II/20250340211-lsimonelli/DATA/IS17_D/17_Db_f00136.xye : mythproc.py merge -s 0.006 -l 0.5 -f /beamlines/bl04/inhouse/ff/FlatField/ff_20Nov2024rod8mm60s_17keV.raw -b True -c true -o xye /beamlines/bl04/projects/cycle2025-II/20250340211-lsimonelli/DATA/IS17_D/17_Db_00136.dat
# IsMon = [6788602, 6787515, 6792258]  IsPos = [-1.5000, -2.4884, -3.4988]
# Wave = 0.4962  CalPath /beamlines/bl04/projects/cycle2025-II/20250340211-lsimonelli/DATA/Align/Si_Pos1_25keV_f00001.cal
# Date = 2025-09-25_07:38:05 Dt = 4.8000  Bin = 0.0060  <imon> = 6789458 +/- 2029 (Min/Max) 6787515 / 6792258
# icurr 252.9495  mocoIn 1.7256E-05  mocoOut 0.8093  i15 7.10995e+06  imon 6.78946e+06  i7 3.3333  iEMpd_timer 4.8000  iEMpd_1 3.6146E-08  iEMpd_2 7.9472E-08  iEMpd_3 1.8473E-08  iEMpd_4 4.8669E-08  iEMhp_timer 4.8000  iEMhp_1 4.9411E-06  iEMhp_2 -2.6137E-08  iEMhp_3 -2.4513E-08  iEMhp_4 -2.1898E-08
#      9776
 1.7416  70085.6  264.83
 1.9396  48621.6  220.862
 2.1376  35545.2  188.84
 2.3356  31411.3  177.147
 2.5336  30154.4  174.177
 2.7316  27243.9  165.681
 2.9296  25846.5  161.536
 3.1276  25355.9  159.528
 3.3256  24455.9  156.34
 3.5236  26073.4  161.228
 3.7216  24063.3  156.13
 3.9196  23686.4  154.111
 4.1176  23504.7  153.3
 4.3156  24350.3  156.189
 4.5136  27204.5  164.07
 4.7116  27909.3  167.314
 4.9096  27115.1  164.355
 5.1076  26711.1  163.707
 5.3056  26877.5  163.928
 5.5036  26774.4  163.54
 5.7016  27310  165.12
 5.8996  27542.7  165.057
 6.0976  28518.3  169.364
 6.2956  28617.1  169.009
 6.4936  29447.8  170.626
 6.6916  29611.1  172.095
 6.8896  30720.5  175.137
 7.0876  31945.4  179.261
 7.2856  31365.9  176.765
 7.4836  32375.3  178.923
 7.6816  32997.7  181.16
 7.8796  33514  182.582
 8.0776  36495.7  191.529
 8.2756  37381.7  192.43
 8.4736  37996.2  193.826
 8.6716  37338.8  192.78
 8.8696  38442.6  196.101
 9.0676  37513.1  193.031
 9.2656  36059.4  189.959
 9.4636  35270.6  186.304
 9.6616  34483.8  184.95
 9.8596  33698.1  182.305
 10.0576  31544.4  177.069
 10.2556  30941.1  175.813
 10.4536  32338.6  179.327
 10.6516  33464.2  182.615
 10.8496  28197.6  167.042
 11.0476  27837  165.986
 11.2456  28943.8  169.83
 11.4436  27645  165.113
 11.6416  26239  161.2
 11.8396  25430.7  158.91
 12.0376  24368  155.194
 12.2356  25174.3  158.168
 12.4336  24527.1  155.663
 12.6316  24066  154.454
 12.8296  24519  155.507
 13.0276  24575.7  155.9
 13.2256  24539.7  156.156
 13.4236  24760.9  156.627
 13.6216  24841.8  156.878
 13.8196  27425.6  164.283
 14.0176  24124  154.673
 14.2156  23642.8  152.149
 14.4136  22247.6  148.971
 14.6116  22135.6  147.794
 14.8096  21193.3  144.586
 15.0076  20531.9  146.228
 15.2056  19451.5  138.135
 15.4036  18467.4  135.424
 15.6016  18186.4  133.479
 15.7996  17754.5  132.15
 15.9976  17394.1  133.708
 16.1956  17156.3  130.673
 16.3936  16959.9  129.086
 16.5916  16434.6  127.714
 16.7896  16702.2  128.801
 16.9876  16561.3  129.749
 17.1856  16127.4  126.421
 17.3836  15693.9  124.618
 17.5816  15491.5  124.295
 17.7796  15384.4  123.788
 17.9776  15138.1  123.569
 18.1756  15683.5  124.489
 18.3736  15496.2  124.236
 18.5716  14775.5  121.065
 18.7696  14801.2  120.739
 18.9676  14490.1  119.258
 19.1656  14135.9  118.368
 19.3636  14157.5  118.667
 19.5616  14067  118.448
 19.7596  14465.6  119.508
 19.9576  14798.5  120.908
 20.1556  13781.9  117.211
 20.3536  13682.7  116.169
 20.5516  13470.7  115.704
 20.7496  13352.4  115.057
 20.9476  13400  115.106
 21.1456  13356  115.244
 21.3436  12989.4  113.607
 21.5416  12880  113.135
 21.7396  12779.5  112.533
 21.9376  12712.1  112.007
 22.1356  13017.1  113.625
 22.3336  12733.4  112.52
 22.5316  12441.7  111.306
 22.7296  12458.9  110.749
 22.9276  12420.4  111.248
 23.1256  12684.6  111.893
 23.3236  12921.7  113.514
 23.5216  12704.8  112.196
 23.7196  12753.9  112.584
 23.9176  12560.6  111.259
 24.1156  12373.6  110.876
 24.3136  12227.4  111.049
 24.5116  12332.4  111.048
 24.7096  11975.7  109.243
 24.9076  11751.6  108.246
 25.1056  11500  107.543
 25.3036  11236.4  105.805
 25.5016  11235.3  105.842
 25.6996  11253.1  105.504
 25.8976  11358.5  106.44
 26.0956  11129.7  105.364
 26.2936  11043.4  104.626
 26.4916  11253.9  105.477
 26.6896  10912.5  104.172
 26.8876  10810.4  103.534
 27.0856  10573.6  102.445
 27.2836  10453.2  101.755
 27.4816  10502.6  101.934
 27.6796  10383  101.718
 27.8776  10753.3  103.367
 28.0756  10244.8  101.191
 28.2736  10255.1  100.812
 28.4716  10126  100.231
 28.6696  10072.3  99.8139
 28.8676  9966.1  99.6419
 29.0656  9863.11  99.101
 29.2636  9839.98  98.7763
 29.4616  9573.15  97.6084
 29.6596  9506.2  96.8344
 29.8576  9490.74  97.4386
 30.0556  9466.51  97.19
 30.2536  9550.88  97.4178
 30.4516  9604.91  97.3282
 30.6496  9513.65  96.5961
 30.8476  9476.29  96.8518
 31.0456  9678.51  97.8435
 31.2436  9648.9  96.9462
 31.4416  9308.1  95.4211
 31.6396  9601.02  96.9542
 31.8376  9454.37  95.7352
 32.0356  9427.23  96.1639
 32.2336  9348.03  95.1617
 32.4316  9100.35  94.2944
 32.6296  9061.69  93.9357
 32.8276  9128.94  94.061
 33.0256  9131.36  94.1338
 33.2236  9084.98  94.042
 33.4216  9000.34  93.2879
 33.6196  8974.23  93.4598
 33.8176  8921.48  93.3444
 34.0156  8815.29  92.4145
 34.2136  8958.57  93.1833
 34.4116  8662.23  91.7996
 34.6096  8856.33  92.69
 34.8076  8623.37  91.8858
 35.0056  8632.51  91.6053
 35.2036  8796.35  92.699
 35.4016  8492.38  90.9918
 35.5996  8577.29  91.477
 35.7976  8458.04  91.1238
 35.9956  8587.17  91.4546
 36.1936  8577.48  91.2608
 36.3916  8438.26  90.7146
 36.5896  8356.1  91.261
 36.7876  8218.31  89.8913
 36.9856  8019.38  88.8176
 37.1836  8196.17  88.8991
 37.3816  8083.24  88.6462
 37.5796  8213.58  91.1017
 37.7776  8321.62  90.0373
 37.9756  8254.09  89.5582
 38.1736  8288.45  89.932
 38.3716  8163.27  89.5263
 38.5696  8074.14  89.4205
 38.7676  7937.89  88.1807
 38.9656  8114.29  88.7797
 39.1636  8062.99  88.7712
 39.3616  8104.27  88.9359
 39.5596  7928.63  88.8051
 39.7576  7976.13  88.4432
 39.9556  8113.44  88.8392
 40.1536  8108.65  89.0045
 40.3516  8092.36  88.9304
 40.5496  8085.06  89.1465
 40.7476  8075.75  89.1094
 40.9456  8118.35  89.09
 41.1436  8185.72  89.1767
 41.3416  7965  88.3035
 41.5396  7882.01  87.6478
 41.7376  7998.11  88.5544
 41.9356  7867.04  87.6878
 42.1336  8123.74  89.2352
 42.3316  7904.49  88.2395
 42.5296  7894.2  87.6993
 42.7276  7862.77  87.7622
 42.9256  7922.68  87.9669
 43.1236  7922.55  88.074
 43.3216  8003.67  88.2673
 43.5196  7797.84  87.196
 43.7176  7909.71  88.2175
 43.9156  7697.94  86.9332
 44.1136  7591.65  85.8923
 44.3116  7732.83  86.6897
 44.5096  7711.92  86.8946
 44.7076  7648.81  86.4671
 44.9056  7786.88  87.107
 45.1036  7787.15  86.7221
 45.3016  7620.34  86.2826
 45.4996  7625.1  86.2606
 45.6976  7626.42  86.4456
 45.8956  7609.37  86.1762
 46.0936  7775.82  86.8624
 46.2916  7727.94  86.8247
 46.4896  7842.4  87.5005
 46.6876  7576.87  86.7242
 46.8856  7527.73  85.6869
 47.0836  7574.57  86.2042
 47.2816  7403.02  85.1124
 47.4796  7612.74  86.4212
 47.6776  7401.61  86.1751
 47.8756  7474.26  85.7484
 48.0736  7553.84  86.6688
 48.2716  7343.54  85.268
 48.4696  7481.89  85.6411
 48.6676  7506.41  86.3975
 48.8656  7586.17  86.5742
 49.0636  7596.64  86.5801
 49.2616  7439.6  85.7192
 49.4596  7496.69  85.5865
 49.6576  7393.25  85.2218
 49.8556  7394.91  85.2633
 50.0536  7374.89  85.6041
 50.2516  7461.87  86.2421
 50.4496  7356.28  85.2832
 50.6476  7384.2  85.1134
 50.8456  7421.57  85.4064
 51.0436  7139  84.2223
 51.2416  7151.49  83.9645
 51.4396  7045.87  83.7554
 51.6376  7170.75  84.3136
 51.8356  7126.31  83.6672
 52.0336  7219.99  84.7311
 52.2316  7110.94  84.4581
 52.4296  7072.39  83.9222
 52.6276  7040.82  83.8496
 52.8256  7155.71  84.0727
 53.0236  7134.01  84.6151
 53.2216  7006.24  83.8725
 53.4196  6974.68  83.6256
 53.6176  7066.6  84.6721
 53.8156  7017.84  84.0435
 54.0136  6735.98  82.4966
 54.2116  6928.08  83.3021
 54.4096  6791.39  82.5558
 54.6076  6684.92  82.241
 54.8056  6608.21  81.5386
 55.0036  6725.12  82.5285
 55.2016  6748.83  82.2429
 55.3996  6460.09  80.5324
 55.5976  6655.37  81.9272
 55.7956  6556.05  81.1236
 55.9936  6641.96  81.7975
 56.1916  6547.96  81.2562
 56.3896  6333.68  79.8961
 56.5876  6464.31  81.2732
 56.7856  6405.54  80.4041
 56.9836  6462.91  80.5267
 57.1816  6577.83  81.6116
 57.3796  6350.51  79.9943
 57.5776  6417.81  80.3268
 57.7756  6275.81  80.0981
 57.9736  6260.09  79.6617
 58.1716  6201.98  79.5543
 58.3696  6070.23  78.4671
 58.5676  6101.17  78.1311
 58.7656  6113  78.8841
 58.9636  6140.91  79.0882
 59.1616  6152.41  79.3056
 59.3596  6178.07  78.7076
 59.5576  5992.98  77.576
 59.7556  6012.81  78.1215
 59.9536  6116.21  78.6886
 60.1516  6054.15  79.1381
 60.1996  0.0000000E+00  0.0000000E+00