File: docs/examples/opeando_xrd/IS17_D/Data/IS17_D/17_Da_f00131.xye
# /beamlines/bl04/projects/cycle2025-II/20250340211-lsimonelli/DATA/IS17_D/17_Da_f00131.xye : mythproc.py merge -s 0.006 -l 0.5 -f /beamlines/bl04/inhouse/ff/FlatField/ff_20Nov2024rod8mm60s_17keV.raw -b True -c true -o xye /beamlines/bl04/projects/cycle2025-II/20250340211-lsimonelli/DATA/IS17_D/17_Da_00131.dat
# IsMon = [6774503, 6774819, 6773454]  IsPos = [-1.4999, -2.4884, -3.4988]
# Wave = 0.4962  CalPath /beamlines/bl04/projects/cycle2025-II/20250340211-lsimonelli/DATA/Align/Si_Pos1_25keV_f00001.cal
# Date = 2025-09-25_06:04:32 Dt = 4.8000  Bin = 0.0060  <imon> = 6774259 +/- 583 (Min/Max) 6773454 / 6774819
# icurr 251.5078  mocoIn 1.7158E-05  mocoOut 0.8048  i15 7.0924e+06  imon 6.77426e+06  i7 4.0000  iEMpd_timer 4.8000  iEMpd_1 3.4758E-08  iEMpd_2 7.8364E-08  iEMpd_3 1.8261E-08  iEMpd_4 4.8958E-08  iEMhp_timer 4.8000  iEMhp_1 4.9137E-06  iEMhp_2 -2.5807E-08  iEMhp_3 -2.4290E-08  iEMhp_4 -2.0697E-08
#      9776
 1.7416  69961.3  264.573
 1.9396  46241.4  215.371
 2.1376  32592.5  180.812
 2.3356  29047.8  170.338
 2.5336  27210.1  165.442
 2.7316  25367.2  159.85
 2.9296  24138.6  156.095
 3.1276  23792.3  154.52
 3.3256  23575.6  153.485
 3.5236  25437  159.233
 3.7216  23354.1  153.821
 3.9196  22974.7  151.792
 4.1176  22782.8  150.923
 4.3156  24036.1  155.191
 4.5136  26461.4  161.808
 4.7116  27537.1  166.205
 4.9096  26816.5  163.453
 5.1076  26381.1  162.696
 5.3056  26766.3  163.617
 5.5036  26699.8  163.3
 5.7016  27134.3  164.594
 5.8996  27894.2  166.09
 6.0976  28452.2  169.19
 6.2956  29058.5  170.318
 6.4936  29787.4  171.625
 6.6916  30031.3  173.33
 6.8896  31060  176.136
 7.0876  31754.5  178.818
 7.2856  31801.9  178.002
 7.4836  32292  178.704
 7.6816  33126.9  181.538
 7.8796  34563.7  185.432
 8.0776  36467  191.46
 8.2756  38264.9  194.709
 8.4736  38921.6  196.176
 8.6716  38110.4  194.762
 8.8696  38395.1  195.966
 9.0676  37448.6  192.892
 9.2656  36265.3  190.518
 9.4636  35834  187.779
 9.6616  35016  186.404
 9.8596  33788.8  182.553
 10.0576  31833.3  177.866
 10.2556  31174  176.458
 10.4536  30382.3  173.796
 10.6516  30054  173.059
 10.8496  28612.8  168.271
 11.0476  28068.1  166.681
 11.2456  27619.3  165.884
 11.4436  28119.7  166.531
 11.6416  26620.1  162.392
 11.8396  25167.4  158.095
 12.0376  25231.7  157.94
 12.2356  24952.7  157.47
 12.4336  24687.9  156.165
 12.6316  24321.2  155.271
 12.8296  24683.2  156.063
 13.0276  25163.9  157.76
 13.2256  25035.6  157.72
 13.4236  24941.4  157.193
 13.6216  24950.7  157.237
 13.8196  24952.3  157.01
 14.0176  24466.5  155.763
 14.2156  23886.3  152.941
 14.4136  22756.8  150.665
 14.6116  22475.4  148.93
 14.8096  21870  146.899
 15.0076  20643.9  146.579
 15.2056  20268.6  141.019
 15.4036  19275.3  138.344
 15.6016  18881.3  136.006
 15.7996  18474.4  134.82
 15.9976  17749  135.116
 16.1956  17082.6  130.416
 16.3936  16998.5  129.263
 16.5916  16841.6  129.304
 16.7896  16822.8  129.292
 16.9876  16566.5  129.783
 17.1856  16222.3  126.776
 17.3836  15810.9  125.059
 17.5816  15579.1  124.63
 17.7796  15346.1  123.627
 17.9776  15300.4  124.251
 18.1756  15529  123.837
 18.3736  15286.8  123.399
 18.5716  15030  122.106
 18.7696  14830.9  120.863
 18.9676  14634.1  119.862
 19.1656  14348.1  119.25
 19.3636  14394.7  119.643
 19.5616  14269.8  119.297
 19.7596  14502.8  119.652
 19.9576  14926.6  121.453
 20.1556  14289.2  119.362
 20.3536  13955.3  117.328
 20.5516  13654.1  116.508
 20.7496  13411  115.405
 20.9476  13298.2  114.663
 21.1456  13408.7  115.475
 21.3436  13192.6  114.492
 21.5416  12962.9  113.492
 21.7396  12945.3  113.262
 21.9376  13016.4  113.34
 22.1356  12995  113.364
 22.3336  12975.6  113.576
 22.5316  13005.1  113.793
 22.7296  12867.1  112.55
 22.9276  12939.8  113.551
 23.1256  13183.5  114.084
 23.3236  12812.7  113.033
 23.5216  12866.7  112.914
 23.7196  12697.4  112.118
 23.9176  12554.6  111.233
 24.1156  12497.8  111.465
 24.3136  11898.7  109.546
 24.5116  12119.7  110.081
 24.7096  11841.8  108.628
 24.9076  11530.6  107.217
 25.1056  11346.3  106.821
 25.3036  11298.2  106.106
 25.5016  11350.6  106.387
 25.6996  11194  105.23
 25.8976  11240  105.886
 26.0956  11211.9  105.776
 26.2936  11280.6  105.737
 26.4916  11241.6  105.43
 26.6896  10860.8  103.93
 26.8876  10735.9  103.176
 27.0856  10777.3  103.431
 27.2836  10611.5  102.529
 27.4816  10460.6  101.732
 27.6796  10420.7  101.915
 27.8776  10454.7  101.937
 28.0756  10397.9  101.95
 28.2736  10377.2  101.425
 28.4716  10141.8  100.315
 28.6696  10026.6  99.5885
 28.8676  10029.1  99.9503
 29.0656  9919.61  99.3835
 29.2636  9931.03  99.2314
 29.4616  9659.78  98.0532
 29.6596  9914.81  98.9007
 29.8576  9650.69  98.2637
 30.0556  9682.78  98.3038
 30.2536  9846.66  98.9209
 30.4516  9739.5  98.0332
 30.6496  9646  97.2861
 30.8476  9599.87  97.4991
 31.0456  9435.74  96.6172
 31.2436  9523.82  96.3315
 31.4416  9348.37  95.6159
 31.6396  9492.82  96.3997
 31.8376  9356.98  95.2519
 32.0356  9345.02  95.762
 32.2336  9282.02  94.821
 32.4316  9206.9  94.8458
 32.6296  9070.24  93.9778
 32.8276  9138.12  94.1055
 33.0256  9056.76  93.7599
 33.2236  9090.61  94.0779
 33.4216  9226.19  94.4674
 33.6196  9069.61  93.9549
 33.8176  9007.11  93.7931
 34.0156  8975.77  93.2475
 34.2136  8892.01  92.8484
 34.4116  8839.47  92.7252
 34.6096  8781.62  92.3
 34.8076  8720.88  92.399
 35.0056  8854.05  92.7825
 35.2036  8653.78  91.9294
 35.4016  8649.96  91.8369
 35.5996  8578.47  91.4942
 35.7976  8568.62  91.717
 35.9956  8670.72  91.902
 36.1936  8565.2  91.208
 36.3916  8447.43  90.7609
 36.5896  8348.54  91.1979
 36.7876  8429.07  91.0432
 36.9856  8331.47  90.5416
 37.1836  8422.28  90.1246
 37.3816  8324.52  89.9618
 37.5796  8287.97  91.4956
 37.7776  8108.48  88.8811
 37.9756  8140.47  88.9327
 38.1736  8299.19  89.9991
 38.3716  8208.93  89.79
 38.5696  8162.04  89.9008
 38.7676  7938.27  88.1704
 38.9656  8028.01  88.3038
 39.1636  7934.35  88.0532
 39.3616  8062  88.6896
 39.5596  7998.92  89.1996
 39.7576  7883.82  87.9256
 39.9556  7993.96  88.1782
 40.1536  8170.67  89.3503
 40.3516  8232.57  89.6973
 40.5496  8111.45  89.2981
 40.7476  8106.26  89.2713
 40.9456  8099.39  88.9804
 41.1436  8116.4  88.7983
 41.3416  8043.75  88.7387
 41.5396  8029.84  88.4677
 41.7376  8053.78  88.8649
 41.9356  8063.61  88.7775
 42.1336  8049.04  88.8451
 42.3316  7926.44  88.3696
 42.5296  7954.34  88.0342
 42.7276  8029.88  88.6976
 42.9256  7956.28  88.1588
 43.1236  7877.52  87.8301
 43.3216  7890.76  87.651
 43.5196  7807.82  87.2516
 43.7176  7835.83  87.8095
 43.9156  7747.86  87.2259
 44.1136  7766.55  86.8788
 44.3116  7760.66  86.8587
 44.5096  7692.01  86.7837
 44.7076  7564.81  85.9953
 44.9056  7641.72  86.2993
 45.1036  7454.44  84.8614
 45.3016  7425.67  85.1974
 45.4996  7515.79  85.6495
 45.6976  7414.93  85.2528
 45.8956  7512.23  85.6181
 46.0936  7478.24  85.4215
 46.2916  7511.73  85.5911
 46.4896  7490.71  85.5125
 46.6876  7457.49  86.0404
 46.8856  7336.79  84.5913
 47.0836  7303.29  84.6565
 47.2816  7189.99  83.8761
 47.4796  7168.57  83.863
 47.6776  7110.61  84.4602
 47.8756  7157.82  83.916
 48.0736  7169.95  84.4434
 48.2716  7041.44  83.4955
 48.4696  7202.03  84.0338
 48.6676  7050.51  83.7338
 48.8656  7198.44  84.3318
 49.0636  7122.14  83.83
 49.2616  6907.25  82.5955
 49.4596  6983.21  82.6033
 49.6576  6931.72  82.5272
 49.8556  6997.27  82.9386
 50.0536  6999.75  83.4022
 50.2516  6908.12  82.9856
 50.4496  6840.5  82.2354
 50.6476  6852.62  81.9923
 50.8456  6891.34  82.302
 51.0436  6688.11  81.5298
 51.2416  6729.08  81.4514
 51.4396  6548.74  80.7401
 51.6376  6660.98  81.2623
 51.8356  6646.2  80.7989
 52.0336  6536.1  80.6352
 52.2316  6614.32  81.4638
 52.4296  6670.71  81.4994
 52.6276  6563.51  80.9584
 52.8256  6647.84  81.0335
 53.0236  6442.52  80.4078
 53.2216  6470.83  80.6139
 53.4196  6380.33  79.9765
 53.6176  6424.87  80.7323
 53.8156  6497.62  80.8591
 54.0136  6429.16  80.6111
 54.2116  6319.74  79.582
 54.4096  6404.7  80.1689
 54.6076  6377.04  80.3472
 54.8056  6361.63  80.0358
 55.0036  6280.32  79.9128
 55.2016  6224.51  79.106
 55.3996  6360.11  79.9282
 55.5976  6329.72  79.932
 55.7956  6351.86  79.8799
 55.9936  6286.34  79.6082
 56.1916  6237.15  79.3144
 56.3896  6329.82  79.8905
 56.5876  6277.14  80.1109
 56.7856  6191.44  79.0416
 56.9836  6200.62  78.8844
 57.1816  6337  80.1287
 57.3796  6178.26  78.9225
 57.5776  6215  79.0873
 57.7756  6186.08  79.5452
 57.9736  6154.36  79.0131
 58.1716  6312.69  80.2688
 58.3696  6289.77  79.8677
 58.5676  6299.68  79.3998
 58.7656  6216.02  79.5498
 58.9636  6378.72  80.6177
 59.1616  6287.63  80.1675
 59.3596  6339.77  79.7522
 59.5576  6368.5  79.9907
 59.7556  6270.12  79.7967
 59.9536  6329.79  80.072
 60.1516  6280.61  80.626
 60.1996  0.0000000E+00  0.0000000E+00