File: docs/examples/opeando_xrd/IS17_D/Data/IS17_D/17_Db_f00143.xye
# /beamlines/bl04/projects/cycle2025-II/20250340211-lsimonelli/DATA/IS17_D/17_Db_f00143.xye : mythproc.py merge -s 0.006 -l 0.5 -f /beamlines/bl04/inhouse/ff/FlatField/ff_20Nov2024rod8mm60s_17keV.raw -b True -c true -o xye /beamlines/bl04/projects/cycle2025-II/20250340211-lsimonelli/DATA/IS17_D/17_Db_00143.dat
# IsMon = [6740852, 6742125, 6745801]  IsPos = [-1.4999, -2.4884, -3.4988]
# Wave = 0.4962  CalPath /beamlines/bl04/projects/cycle2025-II/20250340211-lsimonelli/DATA/Align/Si_Pos1_25keV_f00001.cal
# Date = 2025-09-25_09:33:59 Dt = 4.8000  Bin = 0.0060  <imon> = 6742926 +/- 2098 (Min/Max) 6740852 / 6745801
# icurr 249.3817  mocoIn 1.7014E-05  mocoOut 0.7980  i15 7.06856e+06  imon 6.74293e+06  i7 3.0000  iEMpd_timer 4.8000  iEMpd_1 3.4052E-08  iEMpd_2 7.8031E-08  iEMpd_3 1.9083E-08  iEMpd_4 4.7990E-08  iEMhp_timer 4.8000  iEMhp_1 4.8721E-06  iEMhp_2 -2.5677E-08  iEMhp_3 -2.4259E-08  iEMhp_4 -2.1587E-08
#      9776
 1.7416  69213.6  263.201
 1.9396  48615.8  220.866
 2.1376  35607.8  189.023
 2.3356  31792.6  178.235
 2.5336  29676.6  172.807
 2.7316  27221  165.613
 2.9296  25918.4  161.755
 3.1276  25236.8  159.156
 3.3256  24660.2  156.985
 3.5236  26216.3  161.664
 3.7216  24201.3  156.571
 3.9196  23628  153.899
 4.1176  23387.4  152.911
 4.3156  24475.2  156.592
 4.5136  26853.4  163.007
 4.7116  27771.9  166.905
 4.9096  27158.5  164.486
 5.1076  26826  164.064
 5.3056  26999.8  164.307
 5.5036  26845.4  163.753
 5.7016  27537.2  165.809
 5.8996  27841.6  165.95
 6.0976  28692.4  169.886
 6.2956  28786.8  169.508
 6.4936  29528.4  170.872
 6.6916  29769.1  172.555
 6.8896  30558.4  174.68
 7.0876  31414  177.854
 7.2856  31457.2  177.016
 7.4836  31874.1  177.535
 7.6816  32886.8  180.852
 7.8796  33607.3  182.817
 8.0776  35261.4  188.253
 8.2756  36747.3  190.79
 8.4736  37186.2  191.741
 8.6716  36512.8  190.63
 8.8696  37614.8  193.984
 9.0676  36801.7  191.193
 9.2656  35680.6  188.961
 9.4636  34763.6  184.965
 9.6616  33876.4  183.323
 9.8596  33638.5  182.137
 10.0576  31412.8  176.686
 10.2556  30810.8  175.44
 10.4536  30207.2  173.313
 10.6516  29759.4  172.23
 10.8496  27953.7  166.321
 11.0476  27276.4  164.317
 11.2456  26865.2  163.603
 11.4436  27018.9  163.237
 11.6416  26273.3  161.319
 11.8396  25065.4  157.76
 12.0376  24465.4  155.499
 12.2356  24283.7  155.346
 12.4336  24258.2  154.81
 12.6316  24013.4  154.29
 12.8296  23947.5  153.682
 13.0276  24415.8  155.392
 13.2256  24435.7  155.822
 13.4236  24350.5  155.323
 13.6216  24685.5  156.392
 13.8196  26929.1  162.813
 14.0176  23786.1  153.583
 14.2156  23441.9  151.494
 14.4136  22418.3  149.546
 14.6116  21923.5  147.076
 14.8096  21166.3  144.489
 15.0076  20239.6  145.199
 15.2056  19156.3  137.075
 15.4036  18501.1  135.54
 15.6016  17979.4  132.712
 15.7996  17547.3  131.365
 15.9976  17245.5  133.126
 16.1956  17025.8  130.154
 16.3936  16811.6  128.53
 16.5916  16557.8  128.194
 16.7896  16428.6  127.758
 16.9876  16339.3  128.877
 17.1856  16215.6  126.767
 17.3836  15509.7  123.885
 17.5816  15325.8  123.631
 17.7796  15369.3  123.73
 17.9776  14984.2  122.938
 18.1756  15136.5  122.3
 18.3736  14741.1  121.174
 18.5716  14479.5  119.851
 18.7696  14470.4  119.373
 18.9676  14473.5  119.186
 19.1656  13999.7  117.795
 19.3636  13997.6  117.989
 19.5616  13928.2  117.858
 19.7596  14307.2  118.854
 19.9576  14592.2  120.08
 20.1556  13882.7  117.637
 20.3536  13646.4  116.021
 20.5516  13439.7  115.586
 20.7496  13105.2  114.067
 20.9476  13185.2  114.177
 21.1456  13078.4  114.034
 21.3436  12827.2  112.886
 21.5416  12743.3  112.533
 21.7396  12506  111.325
 21.9376  12552.6  111.3
 22.1356  12737.1  112.245
 22.3336  12481.9  111.396
 22.5316  12201.4  110.224
 22.7296  12418.5  110.57
 22.9276  12276.9  110.598
 23.1256  12569.2  111.383
 23.3236  12727.9  112.665
 23.5216  12535.7  111.443
 23.7196  12433  110.943
 23.9176  12508.8  111.039
 24.1156  12145.4  109.869
 24.3136  12014.4  110.084
 24.5116  11912.9  109.146
 24.7096  11798.4  108.424
 24.9076  11474.8  106.97
 25.1056  11231.5  106.287
 25.3036  10985.2  104.621
 25.5016  11066.9  105.046
 25.6996  10941.7  104.035
 25.8976  11141.3  105.415
 26.0956  10879.8  104.169
 26.2936  10941.8  104.141
 26.4916  11071.1  104.608
 26.6896  10768.5  103.477
 26.8876  10723.2  103.111
 27.0856  10497.3  102.078
 27.2836  10315.3  101.083
 27.4816  10242  100.657
 27.6796  10307.9  101.345
 27.8776  10525.6  102.274
 28.0756  10082.6  100.381
 28.2736  9993.17  99.5258
 28.4716  9873.43  98.978
 28.6696  9968.17  99.2977
 28.8676  9714.9  98.3757
 29.0656  9732.67  98.4409
 29.2636  9797.05  98.5609
 29.4616  9409.08  96.7653
 29.6596  9433.69  96.463
 29.8576  9212.46  95.9923
 30.0556  9394.73  96.8085
 30.2536  9371.82  96.4989
 30.4516  9603.52  97.3305
 30.6496  9582.51  96.9551
 30.8476  9616.63  97.5578
 31.0456  9473.28  96.8116
 31.2436  9454.79  95.9697
 31.4416  9170.16  94.7123
 31.6396  9505.59  96.4669
 31.8376  9247.17  94.6863
 32.0356  9307.97  95.5547
 32.2336  9368.19  95.2703
 32.4316  8976.59  93.6534
 32.6296  8971.1  93.4555
 32.8276  9102.15  93.924
 33.0256  8894.66  92.9023
 33.2236  8955.28  93.3781
 33.4216  8878.09  92.6499
 33.6196  8892.58  93.0266
 33.8176  8865.86  93.0521
 34.0156  8829.99  92.4878
 34.2136  8838.86  92.5624
 34.4116  8583.55  91.3777
 34.6096  8643.66  91.5754
 34.8076  8398.24  90.6801
 35.0056  8557.11  91.2052
 35.2036  8741.36  92.412
 35.4016  8397.6  90.4827
 35.5996  8491.06  91.0206
 35.7976  8249.75  89.9877
 35.9956  8547.65  91.2517
 36.1936  8470.11  90.6673
 36.3916  8354.4  90.2564
 36.5896  8347.78  91.2129
 36.7876  8132.35  89.4184
 36.9856  8042.56  88.9514
 37.1836  8057.73  88.1434
 37.3816  7999.41  88.1826
 37.5796  8103.81  90.4874
 37.7776  8174.95  89.2499
 37.9756  8171.28  89.1077
 38.1736  8142.12  89.1396
 38.3716  8231.77  89.9025
 38.5696  7884  88.3603
 38.7676  7918.41  88.0716
 38.9656  8022.32  88.269
 39.1636  8036.7  88.6199
 39.3616  7939.15  88.0224
 39.5596  7767.73  87.8877
 39.7576  7805.92  87.4964
 39.9556  7908.31  87.7076
 40.1536  8123.37  89.0873
 40.3516  7957.14  88.1738
 40.5496  7971.94  88.5247
 40.7476  7990.85  88.6322
 40.9456  8097.73  88.9818
 41.1436  8011.23  88.2216
 41.3416  7880.81  87.8323
 41.5396  7883.28  87.6592
 41.7376  7891.16  87.958
 41.9356  7807.28  87.3489
 42.1336  8022.91  88.6965
 42.3316  7809.74  87.7053
 42.5296  7876.38  87.602
 42.7276  7925.96  88.1212
 42.9256  7818.52  87.3933
 43.1236  7844.75  87.6322
 43.3216  7833.3  87.3192
 43.5196  7764.88  87.0026
 43.7176  7763.22  87.3919
 43.9156  7445.38  85.4969
 44.1136  7544.49  85.6191
 44.3116  7636.22  86.1473
 44.5096  7435.49  85.3177
 44.7076  7674  86.6071
 44.9056  7728.95  86.7853
 45.1036  7705.47  86.2709
 45.3016  7564.6  85.9729
 45.4996  7666.21  86.4972
 45.6976  7410.13  85.2128
 45.8956  7613.98  86.2067
 46.0936  7767.55  87.0736
 46.2916  7532.32  85.722
 46.4896  7540.81  85.7992
 46.6876  7470.19  86.1092
 46.8856  7442.98  85.2107
 47.0836  7417.24  85.3206
 47.2816  7405.74  85.1276
 47.4796  7487.64  85.7023
 47.6776  7321.72  85.6995
 47.8756  7427.33  85.4703
 48.0736  7376.71  85.6438
 48.2716  7351.84  85.3165
 48.4696  7380.24  85.0624
 48.6676  7392.4  85.7325
 48.8656  7428.54  85.6639
 49.0636  7437.69  85.6608
 49.2616  7222.15  84.4552
 49.4596  7425.13  85.1813
 49.6576  7329.87  84.865
 49.8556  7321.64  84.8399
 50.0536  7343.23  85.4206
 50.2516  7247.51  84.9976
 50.4496  7249.69  84.6595
 50.6476  7308.23  84.672
 50.8456  7144.71  83.803
 51.0436  7173.33  84.4251
 51.2416  7036.21  83.2838
 51.4396  6846.35  82.5582
 51.6376  7012.21  83.3691
 51.8356  7087.54  83.4321
 52.0336  6908.63  82.8889
 52.2316  7021.61  83.9322
 52.4296  6841.96  82.543
 52.6276  6920.11  83.1273
 52.8256  7037.84  83.38
 53.0236  7056.94  84.1639
 53.2216  7007.4  83.9027
 53.4196  6876.58  82.9997
 53.6176  7004.09  84.3016
 53.8156  7016.05  84.0306
 54.0136  6634.63  81.8725
 54.2116  6891.57  83.0617
 54.4096  6539.47  80.9937
 54.6076  6547.95  81.3971
 54.8056  6559.23  81.2287
 55.0036  6534.67  81.4846
 55.2016  6647.28  81.7028
 55.3996  6369.38  79.9772
 55.5976  6447.73  80.6638
 55.7956  6560.51  81.1745
 55.9936  6541.29  81.1525
 56.1916  6406.04  80.3648
 56.3896  6251.85  79.3764
 56.5876  6320.33  80.3745
 56.7856  6333.58  79.9391
 56.9836  6362.72  79.8923
 57.1816  6420.7  80.6316
 57.3796  6272.34  79.5054
 57.5776  6270.96  79.369
 57.7756  6220.3  79.7389
 57.9736  6161.19  79.0219
 58.1716  6168.77  79.3355
 58.3696  5935.66  77.5873
 58.5676  6092.45  78.0781
 58.7656  5895.84  77.4695
 58.9636  5924.61  77.6753
 59.1616  5995.93  78.287
 59.3596  6016.05  77.6682
 59.5576  5894.39  76.9347
 59.7556  5921.17  77.5234
 59.9536  6034.2  78.1587
 60.1516  5964.24  78.5477
 60.1996  0.0000000E+00  0.0000000E+00