File: docs/examples/opeando_xrd/IS17_D/Data/IS17_D/17_Db_f00144.xye
# /beamlines/bl04/projects/cycle2025-II/20250340211-lsimonelli/DATA/IS17_D/17_Db_f00144.xye : mythproc.py merge -s 0.006 -l 0.5 -f /beamlines/bl04/inhouse/ff/FlatField/ff_20Nov2024rod8mm60s_17keV.raw -b True -c true -o xye /beamlines/bl04/projects/cycle2025-II/20250340211-lsimonelli/DATA/IS17_D/17_Db_00144.dat
# IsMon = [6756388, 6752499, 6756473]  IsPos = [-1.5000, -2.4884, -3.4989]
# Wave = 0.4962  CalPath /beamlines/bl04/projects/cycle2025-II/20250340211-lsimonelli/DATA/Align/Si_Pos1_25keV_f00001.cal
# Date = 2025-09-25_09:50:36 Dt = 4.8000  Bin = 0.0060  <imon> = 6755120 +/- 1854 (Min/Max) 6752499 / 6756473
# icurr 250.1805  mocoIn 1.7071E-05  mocoOut 0.8008  i15 7.07788e+06  imon 6.75512e+06  i7 4.3333  iEMpd_timer 4.8000  iEMpd_1 3.5116E-08  iEMpd_2 7.8975E-08  iEMpd_3 1.7665E-08  iEMpd_4 4.9050E-08  iEMhp_timer 4.8000  iEMhp_1 4.8867E-06  iEMhp_2 -2.5047E-08  iEMhp_3 -2.3681E-08  iEMhp_4 -2.0961E-08
#      9776
 1.7416  70520.3  265.608
 1.9396  48957.5  221.59
 2.1376  35662.6  189.121
 2.3356  32044.1  178.894
 2.5336  29908.4  173.438
 2.7316  27189.6  165.509
 2.9296  25804.5  161.396
 3.1276  25444.7  159.794
 3.3256  24810.2  157.468
 3.5236  26117.6  161.362
 3.7216  24219.9  156.633
 3.9196  23787.5  154.441
 4.1176  23640.8  153.734
 4.3156  24528.4  156.763
 4.5136  26845  162.984
 4.7116  27995.7  167.584
 4.9096  27365.8  165.117
 5.1076  26740.3  163.791
 5.3056  26893.9  163.981
 5.5036  27035.3  164.336
 5.7016  27567.9  165.896
 5.8996  28207.6  167.037
 6.0976  28956.8  170.658
 6.2956  28990.8  170.114
 6.4936  29578.8  171.013
 6.6916  29886.7  172.9
 6.8896  30588  174.758
 7.0876  31956.1  179.287
 7.2856  31568.9  177.332
 7.4836  31955  177.76
 7.6816  33001.3  181.165
 7.8796  33581.1  182.763
 8.0776  35059.3  187.735
 8.2756  36892.5  191.189
 8.4736  37547.2  192.694
 8.6716  36983.3  191.871
 8.8696  37799.3  194.448
 9.0676  36675.9  190.858
 9.2656  35704.6  189.019
 9.4636  35018.9  185.641
 9.6616  34192.1  184.167
 9.8596  33558.9  181.924
 10.0576  31564.1  177.12
 10.2556  30911  175.714
 10.4536  30032  172.798
 10.6516  29519.6  171.527
 10.8496  28078.6  166.686
 11.0476  27483.5  164.935
 11.2456  26816.5  163.469
 11.4436  27021.7  163.246
 11.6416  26258.4  161.272
 11.8396  25125.5  157.949
 12.0376  24557.1  155.795
 12.2356  24162.1  154.962
 12.4336  24103.7  154.311
 12.6316  23924.8  153.997
 12.8296  23953.1  153.705
 13.0276  24544.5  155.808
 13.2256  24468.2  155.928
 13.4236  24365.8  155.372
 13.6216  24735.6  156.525
 13.8196  26796.7  162.401
 14.0176  24020  154.244
 14.2156  23513.6  151.727
 14.4136  22351.7  149.32
 14.6116  22023.1  147.413
 14.8096  21312.5  144.995
 15.0076  20413.9  145.813
 15.2056  19511.6  138.364
 15.4036  18451.5  135.379
 15.6016  18101.5  133.178
 15.7996  17512.4  131.256
 15.9976  17531.8  134.837
 16.1956  16915.6  129.733
 16.3936  16613.4  127.744
 16.5916  16612.1  128.398
 16.7896  16630.2  128.52
 16.9876  16405.5  129.118
 17.1856  16188.4  126.657
 17.3836  15870.7  125.311
 17.5816  15448  124.115
 17.7796  15134.9  122.776
 17.9776  14946.8  122.775
 18.1756  15109.6  122.189
 18.3736  14875.8  121.733
 18.5716  14603.9  120.353
 18.7696  14531.9  119.626
 18.9676  14453  119.092
 19.1656  14200.4  118.641
 19.3636  14050  118.217
 19.5616  14008.4  118.203
 19.7596  14323.5  118.917
 19.9576  14556.4  119.93
 20.1556  14015.8  118.212
 20.3536  13628.7  115.943
 20.5516  13378  115.318
 20.7496  13314.3  114.887
 20.9476  13254.1  114.47
 21.1456  13025.9  113.808
 21.3436  13034.2  113.804
 21.5416  12808.9  112.824
 21.7396  12783.9  112.554
 21.9376  12784.1  112.325
 22.1356  12898.4  113.104
 22.3336  12491.8  111.453
 22.5316  12533  111.723
 22.7296  12411.1  110.539
 22.9276  12412.9  111.224
 23.1256  12503.1  111.097
 23.3236  12540  111.822
 23.5216  12553.3  111.512
 23.7196  12588.7  111.842
 23.9176  12491.9  110.94
 24.1156  12289.7  110.511
 24.3136  11979  109.911
 24.5116  12069.5  109.852
 24.7096  11886.9  108.817
 24.9076  11592.6  107.501
 25.1056  11174.2  106.007
 25.3036  11181.9  105.554
 25.5016  11105.8  105.231
 25.6996  11134.4  104.95
 25.8976  11103.8  105.232
 26.0956  10946.7  104.493
 26.2936  11010.8  104.472
 26.4916  11244.4  105.425
 26.6896  10887  104.044
 26.8876  10752.1  103.254
 27.0856  10609.6  102.623
 27.2836  10375.4  101.374
 27.4816  10350.1  101.192
 27.6796  10278.8  101.209
 27.8776  10619.3  102.718
 28.0756  10160.1  100.775
 28.2736  10131.5  100.205
 28.4716  9976.06  99.4933
 28.6696  9917.65  99.0424
 28.8676  9816.67  98.8816
 29.0656  9679.75  98.1758
 29.2636  9786.37  98.5043
 29.4616  9479.74  97.1399
 29.6596  9519.29  96.9102
 29.8576  9305.48  96.4933
 30.0556  9355  96.626
 30.2536  9471.82  97.0217
 30.4516  9659.88  97.6014
 30.6496  9635.8  97.2147
 30.8476  9457.63  96.7539
 31.0456  9463.07  96.7427
 31.2436  9533.11  96.3549
 31.4416  9408.55  95.9234
 31.6396  9376.24  95.8077
 31.8376  9359.63  95.2387
 32.0356  9214.84  95.0808
 32.2336  9429.68  95.5746
 32.4316  8998.37  93.7688
 32.6296  8982.32  93.5128
 32.8276  9002.33  93.4098
 33.0256  9015.04  93.5266
 33.2236  9019.45  93.7058
 33.4216  8970.19  93.1358
 33.6196  8843.67  92.7781
 33.8176  8767.92  92.5366
 34.0156  8846.18  92.5748
 34.2136  8863.15  92.684
 34.4116  8604.08  91.4915
 34.6096  8514.78  90.8888
 34.8076  8581.8  91.6657
 35.0056  8594.84  91.4007
 35.2036  8748.42  92.4422
 35.4016  8420.42  90.6063
 35.5996  8423.74  90.6578
 35.7976  8486.93  91.2701
 35.9956  8626.33  91.6692
 36.1936  8500.74  90.8546
 36.3916  8277.66  89.8402
 36.5896  8387.39  91.43
 36.7876  8167.8  89.6213
 36.9856  8024.98  88.8621
 37.1836  8020.23  87.9508
 37.3816  8021.37  88.3144
 37.5796  8185.91  90.9445
 37.7776  8148.32  89.0899
 37.9756  8235.01  89.4495
 38.1736  8238.48  89.6452
 38.3716  8054.54  88.9201
 38.5696  7945.32  88.6865
 38.7676  7923.05  88.0953
 38.9656  8103.58  88.7182
 39.1636  7964.04  88.2167
 39.3616  8070.7  88.7508
 39.5596  7753.79  87.8109
 39.7576  7813.99  87.5416
 39.9556  8014.33  88.2947
 40.1536  7956.87  88.1683
 40.3516  7999.85  88.4085
 40.5496  7915.59  88.2165
 40.7476  7955.2  88.4358
 40.9456  8043.96  88.675
 41.1436  8109.26  88.7556
 41.3416  7863.9  87.7425
 41.5396  7891.82  87.7081
 41.7376  7932.35  88.1845
 41.9356  7817.04  87.4038
 42.1336  8075.57  88.9774
 42.3316  7829.76  87.8241
 42.5296  7927.71  87.8835
 42.7276  7877.57  87.8488
 42.9256  7987.97  88.3339
 43.1236  7746.57  87.087
 43.3216  7847.64  87.3897
 43.5196  7791.11  87.1566
 43.7176  7645.5  86.7108
 43.9156  7629.94  86.5644
 44.1136  7632.9  86.1315
 44.3116  7567.88  85.7761
 44.5096  7563.18  86.0587
 44.7076  7559.23  85.967
 44.9056  7804.93  87.2056
 45.1036  7709.02  86.2853
 45.3016  7583.31  86.0762
 45.4996  7508.93  85.5993
 45.6976  7484.71  85.6345
 45.8956  7622.83  86.2486
 46.0936  7652.52  86.1621
 46.2916  7630.23  86.2705
 46.4896  7616.67  86.2259
 46.6876  7413.32  85.7797
 46.8856  7381.68  84.8523
 47.0836  7472.68  85.6259
 47.2816  7410.11  85.1568
 47.4796  7601.64  86.3605
 47.6776  7370.94  85.9924
 47.8756  7393.33  85.2816
 48.0736  7477.21  86.225
 48.2716  7368.04  85.4175
 48.4696  7557.63  86.0746
 48.6676  7436.55  85.9936
 48.8656  7483.5  85.9909
 49.0636  7406.68  85.4836
 49.2616  7260.84  84.6797
 49.4596  7346.57  84.7273
 49.6576  7405.33  85.2955
 49.8556  7279.09  84.5925
 50.0536  7182.6  84.4824
 50.2516  7346.81  85.5715
 50.4496  7268.65  84.7726
 50.6476  7397.01  85.1779
 50.8456  7346.98  84.9853
 51.0436  7087.19  83.9302
 51.2416  7055.97  83.4032
 51.4396  6944.88  83.1605
 51.6376  7007  83.348
 51.8356  7046.7  83.2074
 52.0336  6958.39  83.1819
 52.2316  7092.66  84.3482
 52.4296  6877.01  82.7527
 52.6276  6938.16  83.2314
 52.8256  6917.93  82.6609
 53.0236  7145.05  84.6792
 53.2216  7021.81  83.9634
 53.4196  6968.16  83.5642
 53.6176  6995.72  84.2405
 53.8156  6982.16  83.8243
 54.0136  6695.93  82.2552
 54.2116  6844.84  82.7905
 54.4096  6637.35  81.6041
 54.6076  6628  81.8903
 54.8056  6606.22  81.527
 55.0036  6695.46  82.3494
 55.2016  6481.13  80.6862
 55.3996  6448.13  80.4659
 55.5976  6546.25  81.2648
 55.7956  6550.14  81.1024
 55.9936  6628.37  81.7006
 56.1916  6444.6  80.5856
 56.3896  6322.99  79.8267
 56.5876  6332.01  80.4435
 56.7856  6277.36  79.5744
 56.9836  6325.15  79.6597
 57.1816  6368.08  80.2023
 57.3796  6269.49  79.5002
 57.5776  6366.9  79.9957
 57.7756  6187.92  79.5332
 57.9736  6115.17  78.7364
 58.1716  6109.57  78.9593
 58.3696  5986.98  77.9286
 58.5676  6002.23  77.5028
 58.7656  6076.08  78.6539
 58.9636  6012.97  78.2712
 59.1616  6108.48  79.0227
 59.3596  6008.37  77.6274
 59.5576  5962.4  77.3861
 59.7556  5900.85  77.399
 59.9536  5913.16  77.3796
 60.1516  5803.29  77.4893
 60.1996  6010.08  81.9958