File: docs/examples/opeando_xrd/IS17_D/Data/IS17_D/17_Da_f00006.xye
# /beamlines/bl04/projects/cycle2025-II/20250340211-lsimonelli/DATA/IS17_D/17_Da_f00006.xye : mythproc.py merge -s 0.006 -l 0.5 -f /beamlines/bl04/inhouse/ff/FlatField/ff_20Nov2024rod8mm60s_17keV.raw -b True -c true -o xye /beamlines/bl04/projects/cycle2025-II/20250340211-lsimonelli/DATA/IS17_D/17_Da_00006.dat
# IsMon = [6741878, 6742266, 6744574]  IsPos = [-1.5000, -2.4885, -3.4988]
# Wave = 0.4962  CalPath /beamlines/bl04/projects/cycle2025-II/20250340211-lsimonelli/DATA/Align/Si_Pos1_25keV_f00001.cal
# Date = 2025-09-23_19:13:56 Dt = 4.8000  Bin = 0.0060  <imon> = 6742906 +/- 1190 (Min/Max) 6741878 / 6744574
# icurr 249.2862  mocoIn 1.7012E-05  mocoOut 0.7982  i15 7.05584e+06  imon 6.74291e+06  i7 6.6667  iEMpd_timer 4.8000  iEMpd_1 3.4754E-08  iEMpd_2 7.7303E-08  iEMpd_3 1.6304E-08  iEMpd_4 4.7673E-08  iEMhp_timer 4.8000  iEMhp_1 4.8722E-06  iEMhp_2 -2.4617E-08  iEMhp_3 -2.3701E-08  iEMhp_4 -2.0747E-08
#      9776
 1.7416  68959.9  262.698
 1.9396  44444.1  211.17
 2.1376  31304.3  177.219
 2.3356  27432.2  165.549
 2.5336  27745.2  167.076
 2.7316  24308.2  156.493
 2.9296  23033.7  152.494
 3.1276  22600.7  150.619
 3.3256  22271.4  149.193
 3.5236  24164.3  155.361
 3.7216  22177.5  149.895
 3.9196  21740  147.659
 4.1176  21464.3  146.493
 4.3156  22819.3  151.208
 4.5136  25319.3  158.283
 4.7116  26341.8  162.56
 4.9096  25538  159.511
 5.1076  25257.3  159.197
 5.3056  25653.6  160.172
 5.5036  25128.1  158.506
 5.7016  25637  159.99
 5.8996  26036.5  160.464
 6.0976  26853.5  164.373
 6.2956  27375.4  165.306
 6.4936  28106.1  166.711
 6.6916  28649.4  169.293
 6.8896  29513.9  171.693
 7.0876  30531  175.259
 7.2856  30190.2  173.436
 7.4836  30807.6  174.548
 7.6816  31496.3  177.011
 7.8796  32917.2  180.946
 8.0776  35360.5  188.525
 8.2756  36605.4  190.426
 8.4736  36826.4  190.816
 8.6716  36200.5  189.816
 8.8696  36631.6  191.407
 9.0676  35791  188.573
 9.2656  34225.6  185.073
 9.4636  33508.6  181.566
 9.6616  32863.8  180.569
 9.8596  31673.2  176.761
 10.0576  29913.8  172.438
 10.2556  28831.8  169.711
 10.4536  29571.7  171.478
 10.6516  28958.7  169.888
 10.8496  26656.2  162.411
 11.0476  26007.2  160.401
 11.2456  26387.6  162.148
 11.4436  26037.3  160.237
 11.6416  25234.1  158.101
 11.8396  23677.5  153.351
 12.0376  23701.7  153.052
 12.2356  23714.2  153.54
 12.4336  23520.1  152.436
 12.6316  22828.7  150.426
 12.8296  23410  151.986
 13.0276  23734.2  153.208
 13.2256  23671.3  153.364
 13.4236  23624.7  152.987
 13.6216  23281.6  151.889
 13.8196  23659  152.886
 14.0176  23163.8  151.557
 14.2156  22674.9  149.011
 14.4136  21333.2  145.872
 14.6116  21111.7  144.343
 14.8096  20494.1  142.196
 15.0076  19361.6  141.93
 15.2056  19144.9  137.047
 15.4036  17992.7  133.667
 15.6016  17652.7  131.498
 15.7996  17582.4  131.514
 15.9976  16693.5  131.028
 16.1956  16075.7  126.509
 16.3936  15873.5  124.906
 16.5916  15763.7  125.09
 16.7896  15732.7  125.029
 16.9876  15597.2  125.93
 17.1856  15223.6  122.821
 17.3836  14807.1  121.039
 17.5816  14391.5  119.799
 17.7796  14577.2  120.502
 17.9776  14303.8  120.132
 18.1756  14900.6  121.317
 18.3736  14461.9  120.029
 18.5716  13859.3  117.254
 18.7696  13885.4  116.947
 18.9676  13622.8  115.646
 19.1656  13542.9  115.85
 19.3636  13381.5  115.357
 19.5616  13473  115.921
 19.7596  13616.5  115.945
 19.9576  14137.9  118.199
 20.1556  13452.6  115.812
 20.3536  13124.4  113.779
 20.5516  12961.3  113.509
 20.7496  12500.8  111.33
 20.9476  12830.8  112.633
 21.1456  12756.2  112.63
 21.3436  12443.8  111.197
 21.5416  12411.6  111.055
 21.7396  12193.3  109.921
 21.9376  12390.2  110.57
 22.1356  12196.4  109.977
 22.3336  12149.5  109.879
 22.5316  12231  110.353
 22.7296  12059.3  108.961
 22.9276  12132.2  109.94
 23.1256  12476.5  110.975
 23.3236  12128.9  109.97
 23.5216  12114.1  109.558
 23.7196  11901.7  108.76
 23.9176  11792.1  107.803
 24.1156  11828.6  108.436
 24.3136  11525.5  107.824
 24.5116  11477  107.132
 24.7096  11195.5  105.631
 24.9076  10961.6  104.547
 25.1056  10866.7  104.283
 25.3036  10656.1  103.047
 25.5016  10725.1  103.407
 25.6996  10718.7  102.969
 25.8976  10640.6  103.026
 26.0956  10781.4  103.717
 26.2936  10556.7  102.289
 26.4916  10506.6  101.931
 26.6896  10239.6  100.914
 26.8876  10136.1  100.26
 27.0856  10312.1  101.135
 27.2836  10015.8  99.6077
 27.4816  10035.8  99.6346
 27.6796  9843.57  99.0485
 27.8776  9952.02  99.4565
 28.0756  9802.29  98.9847
 28.2736  9792.2  98.5237
 28.4716  9577.93  97.4841
 28.6696  9526.5  97.0761
 28.8676  9450.17  97.0212
 29.0656  9402.84  96.7605
 29.2636  9388.81  96.4105
 29.4616  9330.03  96.3616
 29.6596  9265.08  95.5998
 29.8576  9194.49  95.9082
 30.0556  9332.7  96.5032
 30.2536  9339.15  96.3346
 30.4516  9251.4  95.5409
 30.6496  9138.87  94.6874
 30.8476  9009.75  94.4508
 31.0456  9075.67  94.7574
 31.2436  9054.94  93.9288
 31.4416  8898.94  93.2902
 31.6396  9098.7  94.3859
 31.8376  8939.29  93.1109
 32.0356  9034.99  94.1666
 32.2336  8745.91  92.0438
 32.4316  8692.84  92.1644
 32.6296  8703.32  91.9919
 32.8276  8734.4  91.9993
 33.0256  8532.19  91.0056
 33.2236  8631.05  91.6752
 33.4216  8668.22  91.559
 33.6196  8525.85  91.0985
 33.8176  8508.05  91.163
 34.0156  8427.44  90.3558
 34.2136  8422.84  90.3682
 34.4116  8418.28  90.4798
 34.6096  8397.77  90.2552
 34.8076  8238.38  89.8064
 35.0056  8310.89  89.8873
 35.2036  8253.16  89.7867
 35.4016  8249.62  89.6895
 35.5996  8190.57  89.4018
 35.7976  8014.82  88.7081
 35.9956  8228.67  89.5267
 36.1936  8141.35  88.9157
 36.3916  8042.64  88.556
 36.5896  8078.15  90.1758
 36.7876  8047.37  88.9533
 36.9856  7943.7  88.4042
 37.1836  7928.54  87.439
 37.3816  7937.7  87.8464
 37.5796  7878.96  89.2162
 37.7776  7690.22  86.5556
 37.9756  7737.9  86.7141
 38.1736  7932.22  87.9852
 38.3716  7885.5  88.0001
 38.5696  7739.69  87.5519
 38.7676  7500.84  85.7124
 38.9656  7619.69  86.0367
 39.1636  7590.71  86.1012
 39.3616  7585.12  86.0332
 39.5596  7529.87  86.5397
 39.7576  7587.17  86.2532
 39.9556  7618.45  86.0846
 40.1536  7745.34  86.9948
 40.3516  7754  87.058
 40.5496  7830.89  87.5299
 40.7476  7711.66  87.0744
 40.9456  7746.23  87.0233
 41.1436  7742.76  86.7341
 41.3416  7727.63  86.978
 41.5396  7707.53  86.6745
 41.7376  7719.06  87.0002
 41.9356  7626.8  86.3378
 42.1336  7675.92  86.7662
 42.3316  7645.07  86.7842
 42.5296  7613.84  86.133
 42.7276  7691.3  86.8074
 42.9256  7619.57  86.2734
 43.1236  7399.1  85.1197
 43.3216  7583.45  86.0262
 43.5196  7455.39  85.2639
 43.7176  7400.93  85.3357
 43.9156  7394.66  85.2093
 44.1136  7368.04  84.614
 44.3116  7374.21  84.6604
 44.5096  7387.58  85.0469
 44.7076  7260.4  84.2431
 44.9056  7212.91  83.8384
 45.1036  7284.37  83.8858
 45.3016  7181.11  83.7784
 45.4996  7107.28  83.2865
 45.6976  7030.78  83.0079
 45.8956  7162.99  83.6099
 46.0936  7190.16  83.5345
 46.2916  7070.1  83.0524
 46.4896  7112.63  83.3372
 46.6876  7052.42  83.6736
 46.8856  7004.32  82.6573
 47.0836  6900.71  82.2908
 47.2816  6862.72  81.9453
 47.4796  6907.69  82.3228
 47.6776  6789.49  82.5322
 47.8756  6767.06  81.5909
 48.0736  6860.78  82.5999
 48.2716  6756.56  81.7956
 48.4696  6822.23  81.7882
 48.6676  6847.14  82.5152
 48.8656  6884.38  82.4724
 49.0636  6827.39  82.0828
 49.2616  6632.49  80.9318
 49.4596  6729.49  81.09
 49.6576  6574.58  80.3711
 49.8556  6522.33  80.0752
 50.0536  6628.4  81.157
 50.2516  6602.05  81.104
 50.4496  6559.72  80.5324
 50.6476  6490.76  79.7995
 50.8456  6525.09  80.0974
 51.0436  6465.21  80.156
 51.2416  6494.85  80.0185
 51.4396  6295.39  79.1676
 51.6376  6408.84  79.7053
 51.8356  6355.53  79.0169
 52.0336  6218.74  78.6452
 52.2316  6274.12  79.3402
 52.4296  6370.43  79.6485
 52.6276  6327.71  79.4921
 52.8256  6291.48  78.8187
 53.0236  6124  78.4022
 53.2216  6169.54  78.7019
 53.4196  5996.23  77.5368
 53.6176  6191.1  79.2583
 53.8156  6074.73  78.1915
 54.0136  6085.45  78.4209
 54.2116  6041.88  77.8171
 54.4096  6109.05  78.2934
 54.6076  6046.15  78.2333
 54.8056  5989.71  77.6588
 55.0036  5991.04  77.9272
 55.2016  6011.1  77.6631
 55.3996  6030.11  77.831
 55.5976  5993.68  77.7731
 55.7956  5945.81  77.2812
 55.9936  5954.02  77.4747
 56.1916  5994.78  77.7595
 56.3896  5988.32  77.7051
 56.5876  5946.36  77.9684
 56.7856  5922.19  77.3056
 56.9836  5906.29  76.9974
 57.1816  5982.34  77.8615
 57.3796  5975.41  77.6174
 57.5776  5928.2  77.2435
 57.7756  5899.7  77.6744
 57.9736  5884.71  77.26
 58.1716  6004.93  78.2791
 58.3696  5889.49  77.2873
 58.5676  6016.99  77.5974
 58.7656  5976.29  77.994
 58.9636  6007.93  78.2313
 59.1616  6089.17  78.8828
 59.3596  6032.02  77.7783
 59.5576  6147.23  78.5745
 59.7556  5943.89  77.6789
 59.9536  6060.95  78.3388
 60.1516  5975.94  78.6317
 60.1996  0.0000000E+00  0.0000000E+00