File: docs/examples/opeando_xrd/IS17_D/Data/IS17_D/17_Db_f00150.xye
# /beamlines/bl04/projects/cycle2025-II/20250340211-lsimonelli/DATA/IS17_D/17_Db_f00150.xye : mythproc.py merge -s 0.006 -l 0.5 -f /beamlines/bl04/inhouse/ff/FlatField/ff_20Nov2024rod8mm60s_17keV.raw -b True -c true -o xye /beamlines/bl04/projects/cycle2025-II/20250340211-lsimonelli/DATA/IS17_D/17_Db_00150.dat
# IsMon = [6744962, 6747850, 6751607]  IsPos = [-1.5000, -2.4883, -3.4989]
# Wave = 0.4962  CalPath /beamlines/bl04/projects/cycle2025-II/20250340211-lsimonelli/DATA/Align/Si_Pos1_25keV_f00001.cal
# Date = 2025-09-25_11:29:56 Dt = 4.8000  Bin = 0.0060  <imon> = 6748140 +/- 2721 (Min/Max) 6744962 / 6751607
# icurr 250.2206  mocoIn 1.7068E-05  mocoOut 0.8010  i15 7.075e+06  imon 6.74814e+06  i7 4.3333  iEMpd_timer 4.8000  iEMpd_1 3.4186E-08  iEMpd_2 7.7280E-08  iEMpd_3 1.7542E-08  iEMpd_4 4.7697E-08  iEMhp_timer 4.8000  iEMhp_1 4.8869E-06  iEMhp_2 -2.5971E-08  iEMhp_3 -2.3502E-08  iEMhp_4 -1.9418E-08
#      9776
 1.7416  70160.8  265.017
 1.9396  49052.1  221.877
 2.1376  35763.3  189.451
 2.3356  32220.4  179.444
 2.5336  29520.3  172.366
 2.7316  27264.3  165.749
 2.9296  26008.3  162.038
 3.1276  25610  160.348
 3.3256  25233.8  158.831
 3.5236  26463  162.424
 3.7216  24063.8  156.128
 3.9196  23943.9  154.932
 4.1176  23849.5  154.421
 4.3156  24511.3  156.707
 4.5136  26935.4  163.25
 4.7116  28113.8  167.927
 4.9096  27328.3  164.998
 5.1076  27062.3  164.788
 5.3056  27193.5  164.885
 5.5036  27063.6  164.415
 5.7016  27609.9  166.021
 5.8996  28188.6  166.98
 6.0976  28880.9  170.451
 6.2956  28988.9  170.1
 6.4936  29852.3  171.808
 6.6916  29936.9  173.045
 6.8896  30711.5  175.118
 7.0876  32108.3  179.723
 7.2856  31592.3  177.402
 7.4836  32066.8  178.156
 7.6816  32713.4  180.367
 7.8796  33642.3  182.917
 8.0776  35053.7  187.69
 8.2756  36815.7  190.958
 8.4736  37538.1  192.638
 8.6716  36757.2  191.255
 8.8696  37332.5  193.261
 9.0676  36845.9  191.326
 9.2656  35844.6  189.406
 9.4636  34775.8  184.998
 9.6616  34238.3  184.294
 9.8596  33503.1  181.788
 10.0576  31543.4  177.064
 10.2556  30575  174.777
 10.4536  29625.6  171.637
 10.6516  29116  170.368
 10.8496  27855.9  166.029
 11.0476  27057.5  163.646
 11.2456  26529  162.581
 11.4436  26954.9  163.042
 11.6416  26421.6  161.765
 11.8396  25170.2  158.098
 12.0376  24488.2  155.572
 12.2356  24141.3  154.889
 12.4336  23906.6  153.68
 12.6316  24181.3  154.833
 12.8296  23950.4  153.688
 13.0276  24527.9  155.74
 13.2256  24533.4  156.132
 13.4236  24319.2  155.222
 13.6216  24816.2  156.799
 13.8196  26883.4  162.627
 14.0176  23665.2  153.097
 14.2156  23586.8  151.959
 14.4136  22259.5  149.011
 14.6116  21857.2  146.848
 14.8096  21190.9  144.569
 15.0076  20350.1  145.586
 15.2056  19435.9  138.074
 15.4036  18365.7  135.038
 15.6016  17907.9  132.443
 15.7996  17727.9  132.036
 15.9976  17650  135.294
 16.1956  17019.7  130.147
 16.3936  16777.5  128.399
 16.5916  16487.9  127.922
 16.7896  16557.4  128.256
 16.9876  16395.9  129.107
 17.1856  16182.9  126.635
 17.3836  15796.3  125.027
 17.5816  15236.3  123.26
 17.7796  15273.7  123.352
 17.9776  14850.9  122.396
 18.1756  15148.4  122.341
 18.3736  14831.9  121.546
 18.5716  14574.8  120.242
 18.7696  14517.4  119.572
 18.9676  14462.3  119.143
 19.1656  14010  117.841
 19.3636  14075  118.313
 19.5616  13944.3  117.932
 19.7596  14269.8  118.708
 19.9576  14477.9  119.599
 20.1556  14144.8  118.743
 20.3536  13775.4  116.572
 20.5516  13432.1  115.538
 20.7496  13172.3  114.287
 20.9476  13279.8  114.589
 21.1456  13057.1  113.941
 21.3436  13002.9  113.661
 21.5416  12839.9  112.959
 21.7396  12659.1  112.005
 21.9376  12622.5  111.61
 22.1356  12806.3  112.705
 22.3336  12346.4  110.785
 22.5316  12554.8  111.796
 22.7296  12463  110.766
 22.9276  12411.8  111.2
 23.1256  12344.1  110.37
 23.3236  12769.9  112.853
 23.5216  12701.3  112.179
 23.7196  12695.6  112.336
 23.9176  12566.4  111.291
 24.1156  12376.9  110.912
 24.3136  12055  110.275
 24.5116  12223.7  110.557
 24.7096  11792.3  108.404
 24.9076  11548.3  107.311
 25.1056  11294.7  106.588
 25.3036  11041.9  104.895
 25.5016  11030.4  104.876
 25.6996  11202.9  105.263
 25.8976  11058.9  105.031
 26.0956  10899.2  104.271
 26.2936  10981.6  104.332
 26.4916  11131.5  104.898
 26.6896  10825.2  103.753
 26.8876  10777.5  103.372
 27.0856  10643.5  102.782
 27.2836  10346.9  101.299
 27.4816  10233.3  100.621
 27.6796  10281.6  101.221
 27.8776  10536.8  102.331
 28.0756  10197.8  100.953
 28.2736  10050.8  99.8037
 28.4716  9978.6  99.5
 28.6696  9880.51  98.8614
 28.8676  9896.22  99.2864
 29.0656  9745.64  98.5162
 29.2636  9829.49  98.7256
 29.4616  9491.22  97.1831
 29.6596  9527.19  96.9359
 29.8576  9264.01  96.2627
 30.0556  9322.49  96.4422
 30.2536  9427.86  96.7831
 30.4516  9628.21  97.4538
 30.6496  9495.92  96.4982
 30.8476  9541.03  97.1816
 31.0456  9543.92  97.1718
 31.2436  9448.49  95.9481
 31.4416  9454.9  96.1738
 31.6396  9419.2  96.0335
 31.8376  9467.42  95.7956
 32.0356  9304.67  95.5498
 32.2336  9314.01  94.9991
 32.4316  8960.84  93.5224
 32.6296  9016.58  93.6845
 32.8276  8963.64  93.2096
 33.0256  8857.81  92.7117
 33.2236  9021.42  93.7257
 33.4216  8877.74  92.6503
 33.6196  8892.68  93.0265
 33.8176  8817.61  92.8033
 34.0156  8718.4  91.9043
 34.2136  8811.95  92.4297
 34.4116  8621.1  91.6873
 34.6096  8640.86  91.5609
 34.8076  8529.47  91.3839
 35.0056  8523.06  91.0146
 35.2036  8788.12  92.6603
 35.4016  8436.69  90.6899
 35.5996  8351.27  90.2706
 35.7976  8394.42  90.7653
 35.9956  8619.48  91.6294
 36.1936  8490.68  90.7855
 36.3916  8399.68  90.4541
 36.5896  8306.27  90.9906
 36.7876  8010.05  88.7308
 36.9856  8089.22  89.1947
 37.1836  8022.24  87.9442
 37.3816  8047.5  88.4424
 37.5796  8083.72  90.3747
 37.7776  8241.5  89.6088
 37.9756  8144.82  88.9676
 38.1736  8205.02  89.4822
 38.3716  8177.43  89.6119
 38.5696  8062.21  89.3487
 38.7676  7862.72  87.7586
 38.9656  8006.22  88.1831
 39.1636  8092.07  88.9423
 39.3616  7934.15  87.994
 39.5596  7832.89  88.2559
 39.7576  7810.28  87.5229
 39.9556  8032.8  88.3962
 40.1536  8039.68  88.6254
 40.3516  7988  88.3486
 40.5496  7938.17  88.3354
 40.7476  8063.16  89.0252
 40.9456  8098.74  88.9713
 41.1436  8168.84  89.0911
 41.3416  7890.1  87.8478
 41.5396  7885.33  87.5926
 41.7376  7861.83  87.7897
 41.9356  7851.82  87.6041
 42.1336  7936.08  88.22
 42.3316  7856.56  87.9658
 42.5296  7913.54  87.7984
 42.7276  7983.34  88.4359
 42.9256  7875.64  87.7075
 43.1236  7744.19  87.0789
 43.3216  7930.46  87.8643
 43.5196  7771.71  87.0394
 43.7176  7656.41  86.79
 43.9156  7512.07  85.879
 44.1136  7536.87  85.5745
 44.3116  7664.66  86.3048
 44.5096  7440.49  85.3422
 44.7076  7538.95  85.8339
 44.9056  7764.81  86.989
 45.1036  7649.25  85.959
 45.3016  7548.65  85.8908
 45.4996  7514.85  85.6419
 45.6976  7503.72  85.7458
 45.8956  7599.69  86.1248
 46.0936  7661.59  86.2332
 46.2916  7581.14  85.9927
 46.4896  7634.37  86.327
 46.6876  7581.33  86.7588
 46.8856  7393.31  84.9134
 47.0836  7431.21  85.3978
 47.2816  7368.68  84.9161
 47.4796  7439.51  85.4318
 47.6776  7391.62  86.1143
 47.8756  7451.34  85.6133
 48.0736  7492.93  86.3155
 48.2716  7294  85.0107
 48.4696  7453.83  85.5162
 48.6676  7445.91  86.0546
 48.8656  7450.15  85.7887
 49.0636  7526.33  86.1783
 49.2616  7332.44  84.9797
 49.4596  7296.34  84.5843
 49.6576  7276.6  84.5505
 49.8556  7248.37  84.4106
 50.0536  7270.58  84.9943
 50.2516  7250.09  85.0072
 50.4496  7248.31  84.6498
 50.6476  7285.18  84.5403
 50.8456  7303.02  84.7219
 51.0436  7125.22  84.1408
 51.2416  7133.74  83.8548
 51.4396  6921.43  83.0043
 51.6376  6943.21  82.9488
 51.8356  7051.59  83.2209
 52.0336  6961.51  83.203
 52.2316  6996.94  83.7784
 52.4296  6873.72  82.7361
 52.6276  6956.66  83.3437
 52.8256  7007.75  83.2068
 53.0236  7062.53  84.198
 53.2216  7008  83.8807
 53.4196  6985.67  83.6788
 53.6176  6946.01  83.9509
 53.8156  6894.09  83.3018
 54.0136  6653.72  81.9958
 54.2116  6879.52  83.0071
 54.4096  6603.54  81.3931
 54.6076  6638.04  81.9513
 54.8056  6547.22  81.1514
 55.0036  6629.74  81.9538
 55.2016  6475.6  80.6455
 55.3996  6416.04  80.2631
 55.5976  6538.47  81.2245
 55.7956  6523.03  80.9406
 55.9936  6577.04  81.4003
 56.1916  6419.21  80.4387
 56.3896  6339.91  79.9283
 56.5876  6258.27  79.9772
 56.7856  6279.49  79.6026
 56.9836  6318.23  79.6298
 57.1816  6356.63  80.1283
 57.3796  6276.48  79.5239
 57.5776  6345.38  79.8489
 57.7756  6167.84  79.4004
 57.9736  6199.88  79.2751
 58.1716  6186.72  79.4568
 58.3696  5945.41  77.6464
 58.5676  6049.99  77.7913
 58.7656  5966.93  77.93
 58.9636  5997.34  78.1448
 59.1616  6006.82  78.3532
 59.3596  5992.38  77.5094
 59.5576  6024.21  77.7739
 59.7556  5882.27  77.2649
 59.9536  5994.2  77.8958
 60.1516  5904.81  78.1519
 60.1996  5799.17  80.5316