File: docs/examples/opeando_xrd/IS17_D/Data/IS17_D/17_Db_f00044.xye
# /beamlines/bl04/projects/cycle2025-II/20250340211-lsimonelli/DATA/IS17_D/17_Db_f00044.xye : mythproc.py merge -s 0.006 -l 0.5 -f /beamlines/bl04/inhouse/ff/FlatField/ff_20Nov2024rod8mm60s_17keV.raw -b True -c true -o xye /beamlines/bl04/projects/cycle2025-II/20250340211-lsimonelli/DATA/IS17_D/17_Db_00044.dat
# IsMon = [6739669, 6741153, 6739099]  IsPos = [-1.5000, -2.4885, -3.4988]
# Wave = 0.4962  CalPath /beamlines/bl04/projects/cycle2025-II/20250340211-lsimonelli/DATA/Align/Si_Pos1_25keV_f00001.cal
# Date = 2025-09-24_05:56:05 Dt = 4.8000  Bin = 0.0060  <imon> = 6739974 +/- 866 (Min/Max) 6739099 / 6741153
# icurr 248.7371  mocoIn 1.6972E-05  mocoOut 0.7958  i15 7.06216e+06  imon 6.73997e+06  i7 5.3333  iEMpd_timer 4.8000  iEMpd_1 3.4722E-08  iEMpd_2 7.9005E-08  iEMpd_3 1.6334E-08  iEMpd_4 4.8953E-08  iEMhp_timer 4.8000  iEMhp_1 4.8606E-06  iEMhp_2 -2.4607E-08  iEMhp_3 -2.3562E-08  iEMhp_4 -2.0036E-08
#      9776
 1.7416  70536.7  265.67
 1.9396  49316.8  222.433
 2.1376  36827.6  192.208
 2.3356  32774.4  180.942
 2.5336  30818  176.076
 2.7316  28420.3  169.2
 2.9296  27020.5  165.146
 3.1276  26562.9  163.267
 3.3256  25655.4  160.096
 3.5236  27286.4  165.068
 3.7216  24649.6  158.018
 3.9196  24028  155.212
 4.1176  23971.9  154.811
 4.3156  24824.2  157.716
 4.5136  27181.1  163.989
 4.7116  28116.8  167.942
 4.9096  27652.2  165.969
 5.1076  27075.7  164.819
 5.3056  26997.5  164.315
 5.5036  26923.3  164.073
 5.7016  27156.3  164.656
 5.8996  27603.5  165.239
 6.0976  28600.8  169.618
 6.2956  28642.4  169.086
 6.4936  29414.5  170.536
 6.6916  29978.6  173.156
 6.8896  30781.8  175.311
 7.0876  32177.6  179.91
 7.2856  31543.8  177.27
 7.4836  31872.2  177.532
 7.6816  32796.3  180.607
 7.8796  33447.1  182.398
 8.0776  34941.8  187.41
 8.2756  36545.4  190.29
 8.4736  37203.7  191.796
 8.6716  36579.4  190.796
 8.8696  37358.8  193.339
 9.0676  36402.2  190.181
 9.2656  35401.8  188.235
 9.4636  34419.2  184.071
 9.6616  33692.1  182.851
 9.8596  32846.8  179.976
 10.0576  30677.4  174.587
 10.2556  29940.5  172.924
 10.4536  28906.2  169.514
 10.6516  27981.9  166.987
 10.8496  26790.3  162.823
 11.0476  25945.2  160.202
 11.2456  25280.9  158.703
 11.4436  25229.7  157.744
 11.6416  26797.6  162.916
 11.8396  24882.7  157.183
 12.0376  24140.4  154.455
 12.2356  23877.9  154.071
 12.4336  23616  152.743
 12.6316  23727.4  153.368
 12.8296  23958.1  153.724
 13.0276  24085.5  154.336
 13.2256  24652.7  156.515
 13.4236  24350.4  155.319
 13.6216  24518.5  155.856
 13.8196  26718.6  162.173
 14.0176  23688.6  153.272
 14.2156  23349.4  151.185
 14.4136  22154.8  148.662
 14.6116  21971.9  147.226
 14.8096  21181.5  144.557
 15.0076  20213.3  145.088
 15.2056  19282.6  137.536
 15.4036  18378.7  135.097
 15.6016  18181.7  133.466
 15.7996  17490.2  131.172
 15.9976  17176.9  132.883
 16.1956  17020.5  130.169
 16.3936  16698.6  128.094
 16.5916  16173.6  126.713
 16.7896  16200  126.876
 16.9876  16007.5  127.552
 17.1856  16036.8  126.047
 17.3836  15734.6  124.762
 17.5816  15173  122.994
 17.7796  14843.2  121.578
 17.9776  14291  120.071
 18.1756  14374.3  119.18
 18.3736  13984.3  118.023
 18.5716  13904.4  117.446
 18.7696  14021.3  117.504
 18.9676  13862.5  116.64
 19.1656  13601.9  116.122
 19.3636  13510.1  115.913
 19.5616  13462.5  115.875
 19.7596  13717.2  116.38
 19.9576  13803.2  116.788
 20.1556  14352.8  119.619
 20.3536  14158.7  118.176
 20.5516  13521.2  115.929
 20.7496  13178.7  114.31
 20.9476  13021.6  113.466
 21.1456  12834.9  112.974
 21.3436  12608.7  111.927
 21.5416  12694.4  112.319
 21.7396  12424.6  110.963
 21.9376  12558.2  111.334
 22.1356  12691.7  112.191
 22.3336  12155.9  109.916
 22.5316  12316.9  110.747
 22.7296  12300.7  110.049
 22.9276  12138.5  109.98
 23.1256  12279.1  110.104
 23.3236  12565.2  111.949
 23.5216  12564.8  111.584
 23.7196  12500.5  111.467
 23.9176  12433.3  110.697
 24.1156  12214.7  110.177
 24.3136  11755.5  108.885
 24.5116  11945.7  109.275
 24.7096  11448.9  106.791
 24.9076  11456.7  106.87
 25.1056  11000.3  104.903
 25.3036  10962.9  104.516
 25.5016  11016.5  104.804
 25.6996  10839.2  103.546
 25.8976  10971  104.611
 26.0956  10688  103.262
 26.2936  10647.9  102.729
 26.4916  10950.6  104.03
 26.6896  10558  102.451
 26.8876  10578.5  102.411
 27.0856  10434.3  101.731
 27.2836  10382.5  101.413
 27.4816  10135.6  100.139
 27.6796  9966.24  99.656
 27.8776  10220.4  100.776
 28.0756  9888.35  99.4127
 28.2736  9879.24  98.9548
 28.4716  9714.51  98.181
 28.6696  9859.79  98.7597
 28.8676  9590.6  97.7466
 29.0656  9554.76  97.536
 29.2636  9618.07  97.5721
 29.4616  9186.33  95.6195
 29.6596  9367.13  96.1259
 29.8576  9113.88  95.4883
 30.0556  9155.47  95.5844
 30.2536  9259.81  95.9246
 30.4516  9436.3  96.4806
 30.6496  9425.44  96.1618
 30.8476  9420.96  96.5757
 31.0456  9520.27  97.0532
 31.2436  9437.26  95.8935
 31.4416  9174.85  94.7242
 31.6396  9272.13  95.2687
 31.8376  9288.03  94.8743
 32.0356  9111.98  94.5367
 32.2336  9131.9  94.0518
 32.4316  8847.86  92.9727
 32.6296  8914.63  93.0972
 32.8276  9006.1  93.4273
 33.0256  8709.4  91.9437
 33.2236  8850.05  92.8169
 33.4216  8757.03  92.0291
 33.6196  8811.31  92.5948
 33.8176  8766.28  92.5338
 34.0156  8618.3  91.3759
 34.2136  8714.23  91.8997
 34.4116  8515.38  91.018
 34.6096  8463.41  90.6178
 34.8076  8361.28  90.4761
 35.0056  8524.25  91.0247
 35.2036  8652.83  91.9368
 35.4016  8399.42  90.4934
 35.5996  8393  90.4998
 35.7976  8275.11  90.1293
 35.9956  8512.84  91.0618
 36.1936  8389.49  90.2555
 36.3916  8234.75  89.6101
 36.5896  8112.32  90.3808
 36.7876  8018.2  88.7925
 36.9856  7884.47  88.0775
 37.1836  8034.2  88.022
 37.3816  7947.86  87.9083
 37.5796  8105.17  90.4926
 37.7776  8048.23  88.5523
 37.9756  8094.77  88.6911
 38.1736  7987.06  88.2893
 38.3716  7972.05  88.4839
 38.5696  7886.27  88.3711
 38.7676  7738.33  87.0419
 38.9656  7908.31  87.6331
 39.1636  7832.53  87.4556
 39.3616  7866.93  87.6099
 39.5596  7755.4  87.8192
 39.7576  7756.05  87.2182
 39.9556  7836.96  87.3115
 40.1536  7844.33  87.5497
 40.3516  7910.64  87.9241
 40.5496  7894.75  87.8862
 40.7476  7947.28  88.3828
 40.9456  7940.9  88.1114
 41.1436  8035.72  88.3563
 41.3416  7751.76  87.1137
 41.5396  7766.6  87.0032
 41.7376  7818.07  87.5535
 41.9356  7749.83  87.0179
 42.1336  7981.23  88.4646
 42.3316  7731.14  87.2691
 42.5296  7847.98  87.4429
 42.7276  7813.85  87.484
 42.9256  7797.06  87.2725
 43.1236  7615.33  86.3554
 43.3216  7735.96  86.8865
 43.5196  7673.08  86.4817
 43.7176  7693.7  86.9992
 43.9156  7523.42  85.9526
 44.1136  7483.77  85.2805
 44.3116  7529.96  85.5568
 44.5096  7421.63  85.2446
 44.7076  7490.18  85.5687
 44.9056  7653.77  86.3694
 45.1036  7563.61  85.4806
 45.3016  7504.22  85.6445
 45.4996  7498.7  85.5552
 45.6976  7413.41  85.2448
 45.8956  7451.19  85.2655
 46.0936  7597.51  85.8477
 46.2916  7400.2  84.9586
 46.4896  7534.12  85.7511
 46.6876  7537.12  86.4811
 46.8856  7367.11  84.7639
 47.0836  7421.62  85.3359
 47.2816  7256.24  84.2588
 47.4796  7452.83  85.4939
 47.6776  7305.53  85.6062
 47.8756  7340.55  84.9814
 48.0736  7317.21  85.2974
 48.2716  7275.46  84.8774
 48.4696  7430.32  85.3578
 48.6676  7446.56  86.0555
 48.8656  7401.55  85.5077
 49.0636  7313.52  84.9561
 49.2616  7196.64  84.3097
 49.4596  7356.62  84.7916
 49.6576  7329.02  84.8425
 49.8556  7240.72  84.3683
 50.0536  7227.39  84.7504
 50.2516  7263.15  85.0666
 50.4496  7247.46  84.6439
 50.6476  7183.65  83.9457
 50.8456  7288.53  84.6486
 51.0436  7033.82  83.6064
 51.2416  6960.76  82.8468
 51.4396  6975.57  83.3387
 51.6376  6943.62  82.961
 51.8356  6983.87  82.8264
 52.0336  6865.71  82.6348
 52.2316  6891.24  83.1571
 52.4296  6957.37  83.2504
 52.6276  6863.75  82.7886
 52.8256  7004.95  83.1968
 53.0236  6897.02  83.1935
 53.2216  6931.5  83.4085
 53.4196  6856.48  82.8917
 53.6176  6968.09  84.0675
 53.8156  6895.83  83.2955
 54.0136  6659.03  82.0372
 54.2116  6825.96  82.6775
 54.4096  6615.51  81.4643
 54.6076  6546.11  81.3916
 54.8056  6509  80.9305
 55.0036  6599.13  81.7639
 55.2016  6434.84  80.304
 55.3996  6440.34  80.4116
 55.5976  6376.85  80.2248
 55.7956  6483.24  80.6869
 55.9936  6544.02  81.1978
 56.1916  6393.3  80.2909
 56.3896  6266.93  79.4707
 56.5876  6216.17  79.6972
 56.7856  6239.5  79.3534
 56.9836  6368.4  79.9268
 57.1816  6366.36  80.2973
 57.3796  6162.88  78.8122
 57.5776  6217.11  79.0531
 57.7756  6130.97  79.1634
 57.9736  6178.26  79.1472
 58.1716  6083.61  78.7978
 58.3696  5893.32  77.3092
 58.5676  5952.42  77.1514
 58.7656  5880.1  77.3708
 58.9636  5903.18  77.5503
 59.1616  5910.29  77.7207
 59.3596  5842.42  76.5606
 59.5576  6032.07  77.8497
 59.7556  5947.12  77.7147
 59.9536  5947.7  77.6181
 60.1516  5839.99  77.7468
 60.1996  0.0000000E+00  0.0000000E+00