File: docs/examples/opeando_xrd/IS17_D/Data/IS17_D/17_Db_f00088.xye
# /beamlines/bl04/projects/cycle2025-II/20250340211-lsimonelli/DATA/IS17_D/17_Db_f00088.xye : mythproc.py merge -s 0.006 -l 0.5 -f /beamlines/bl04/inhouse/ff/FlatField/ff_20Nov2024rod8mm60s_17keV.raw -b True -c true -o xye /beamlines/bl04/projects/cycle2025-II/20250340211-lsimonelli/DATA/IS17_D/17_Db_00088.dat
# IsMon = [6743665, 6748728, 6744242]  IsPos = [-1.4999, -2.4884, -3.4988]
# Wave = 0.4962  CalPath /beamlines/bl04/projects/cycle2025-II/20250340211-lsimonelli/DATA/Align/Si_Pos1_25keV_f00001.cal
# Date = 2025-09-24_18:12:11 Dt = 4.8000  Bin = 0.0060  <imon> = 6745545 +/- 2263 (Min/Max) 6743665 / 6748728
# icurr 249.6266  mocoIn 1.7027E-05  mocoOut 0.7986  i15 7.07101e+06  imon 6.74554e+06  i7 5.0000  iEMpd_timer 4.8000  iEMpd_1 3.4570E-08  iEMpd_2 7.8789E-08  iEMpd_3 1.5996E-08  iEMpd_4 4.6975E-08  iEMhp_timer 4.8000  iEMhp_1 4.8754E-06  iEMhp_2 -2.5646E-08  iEMhp_3 -2.3443E-08  iEMhp_4 -2.2634E-08
#      9776
 1.7416  69777.4  264.267
 1.9396  48103.4  219.706
 2.1376  35203  187.943
 2.3356  31530.3  177.495
 2.5336  29126.9  171.197
 2.7316  26942.2  164.738
 2.9296  25562.1  160.618
 3.1276  25235.4  159.139
 3.3256  24605.1  156.781
 3.5236  25944  160.793
 3.7216  23810.7  155.307
 3.9196  23447.8  153.329
 4.1176  23434.9  153.074
 4.3156  24254  155.897
 4.5136  26533.1  162.014
 4.7116  27714.8  166.731
 4.9096  27019.5  164.065
 5.1076  26806.7  164.003
 5.3056  26875.2  163.927
 5.5036  26901.7  163.913
 5.7016  27315  165.141
 5.8996  27678.8  165.464
 6.0976  28600.5  169.606
 6.2956  28627.5  169.036
 6.4936  29465.9  170.687
 6.6916  29492.8  171.749
 6.8896  30275.1  173.872
 7.0876  31236.4  177.35
 7.2856  30981.8  175.679
 7.4836  31396.5  176.199
 7.6816  32171.6  178.876
 7.8796  33215.5  181.754
 8.0776  34036  184.955
 8.2756  36292.9  189.622
 8.4736  36545.8  190.084
 8.6716  36158.4  189.677
 8.8696  36776.4  191.84
 9.0676  36211.6  189.685
 9.2656  35189.1  187.685
 9.4636  34040.7  183.068
 9.6616  33317.2  181.836
 9.8596  32765.6  179.741
 10.0576  30510.8  174.104
 10.2556  29829.5  172.596
 10.4536  29160.6  170.254
 10.6516  28578  168.752
 10.8496  27540.1  165.091
 11.0476  26555.9  162.128
 11.2456  25882.4  160.577
 11.4436  26474.4  161.583
 11.6416  25798.8  159.847
 11.8396  24394.2  155.643
 12.0376  23898.1  153.701
 12.2356  23522.9  152.884
 12.4336  23632.1  152.799
 12.6316  23386.3  152.259
 12.8296  23654.3  152.743
 13.0276  23956.2  153.916
 13.2256  23958.1  154.292
 13.4236  23909  153.901
 13.6216  24309.1  155.183
 13.8196  26298.9  160.857
 14.0176  23425.5  152.415
 14.2156  22839.6  149.534
 14.4136  21906  147.818
 14.6116  21459.4  145.503
 14.8096  20781.1  143.177
 15.0076  19939.4  144.105
 15.2056  18984.3  136.466
 15.4036  18077.8  133.983
 15.6016  17872.9  132.319
 15.7996  17252.7  130.279
 15.9976  17194.1  132.953
 16.1956  16800.8  129.324
 16.3936  16456.2  127.174
 16.5916  16051.7  126.24
 16.7896  16123  126.581
 16.9876  16059.1  127.752
 17.1856  15682.1  124.638
 17.3836  15438.9  123.583
 17.5816  15022.2  122.381
 17.7796  14854.1  121.622
 17.9776  14505.9  120.978
 18.1756  14929.1  121.459
 18.3736  14750  121.205
 18.5716  14276  119.004
 18.7696  14312.2  118.717
 18.9676  14112.2  117.689
 19.1656  13816  117.033
 19.3636  13780  117.064
 19.5616  13718.7  116.974
 19.7596  13924.6  117.248
 19.9576  14209.3  118.487
 20.1556  13746.9  117.059
 20.3536  13388.5  114.919
 20.5516  13152.2  114.339
 20.7496  12856.6  112.988
 20.9476  12935.2  113.088
 21.1456  12885.8  113.193
 21.3436  12723.6  112.434
 21.5416  12642.1  112.085
 21.7396  12396.2  110.834
 21.9376  12423.9  110.738
 22.1356  12537.9  111.355
 22.3336  12106.5  109.695
 22.5316  11976.4  109.193
 22.7296  12271.5  109.916
 22.9276  11941  109.075
 23.1256  12307  110.224
 23.3236  12511.3  111.718
 23.5216  12414.1  110.92
 23.7196  12275.9  110.252
 23.9176  12306.2  110.143
 24.1156  12248.4  110.344
 24.3136  11743.5  108.821
 24.5116  11952.4  109.304
 24.7096  11518.9  107.116
 24.9076  11387.9  106.545
 25.1056  11132.2  105.799
 25.3036  10944.1  104.419
 25.5016  10795.8  103.745
 25.6996  10873.9  103.715
 25.8976  10835.8  103.956
 26.0956  10645.1  103.052
 26.2936  10742  103.176
 26.4916  10922.2  103.902
 26.6896  10649.7  102.909
 26.8876  10559.2  102.32
 27.0856  10265  100.949
 27.2836  10241.2  100.72
 27.4816  10141.6  100.161
 27.6796  10027.4  99.9578
 27.8776  10332.4  101.323
 28.0756  9928.64  99.6118
 28.2736  9953.06  99.3208
 28.4716  9781.16  98.5167
 28.6696  9800.87  98.4577
 28.8676  9648.47  98.0389
 29.0656  9572  97.6251
 29.2636  9596.39  97.5371
 29.4616  9221.17  95.7915
 29.6596  9198.74  95.2544
 29.8576  9105.91  95.4418
 30.0556  9187.13  95.7489
 30.2536  9155.27  95.378
 30.4516  9498.93  96.8086
 30.6496  9390.07  95.9904
 30.8476  9259.28  95.7566
 31.0456  9388.55  96.3766
 31.2436  9355.35  95.4823
 31.4416  9144.23  94.5608
 31.6396  9261.68  95.2111
 31.8376  9341.48  95.1452
 32.0356  9072.72  94.3201
 32.2336  9068.95  93.7256
 32.4316  8886.64  93.1725
 32.6296  8739.79  92.2409
 32.8276  8771.88  92.2048
 33.0256  8731.53  92.0498
 33.2236  8852.64  92.832
 33.4216  8706.14  91.7641
 33.6196  8672.66  91.8607
 33.8176  8589.24  91.5899
 34.0156  8659.81  91.5969
 34.2136  8640.08  91.5142
 34.4116  8369.74  90.2324
 34.6096  8534.67  90.9942
 34.8076  8303.83  90.1701
 35.0056  8364.54  90.1645
 35.2036  8504.15  91.1446
 35.4016  8292.21  89.9103
 35.5996  8292.36  89.9525
 35.7976  8233.67  89.8989
 35.9956  8298.09  89.902
 36.1936  8314.2  89.8452
 36.3916  8118.53  88.9735
 36.5896  8067.84  89.6664
 36.7876  7890.69  88.0785
 36.9856  7843.4  87.8393
 37.1836  7900.23  87.2785
 37.3816  7942.15  87.8758
 37.5796  8014.21  89.9818
 37.7776  8071.21  88.6869
 37.9756  8044.71  88.4253
 38.1736  8133.21  89.1034
 38.3716  7996.04  88.6082
 38.5696  7917.21  88.5479
 38.7676  7688.73  86.7741
 38.9656  7875.73  87.4491
 39.1636  7876.55  87.7336
 39.3616  7850.77  87.5146
 39.5596  7642.08  87.169
 39.7576  7644.92  86.5901
 39.9556  7823.29  87.232
 40.1536  7773.92  87.1519
 40.3516  7872.76  87.714
 40.5496  7880.74  88.012
 40.7476  7917.77  88.2238
 40.9456  8009.04  88.4856
 41.1436  7957.59  87.9255
 41.3416  7704.59  86.8417
 41.5396  7694.01  86.5946
 41.7376  7843.16  87.6943
 41.9356  7701.62  86.7596
 42.1336  7907.59  88.0541
 42.3316  7731.66  87.2686
 42.5296  7777.19  87.0498
 42.7276  7733.86  87.0417
 42.9256  7757.82  87.0486
 43.1236  7626.08  86.4095
 43.3216  7694.98  86.5498
 43.5196  7504.26  85.5282
 43.7176  7635.72  86.6728
 43.9156  7411.57  85.3014
 44.1136  7239.27  83.872
 44.3116  7444.95  85.0639
 44.5096  7524.86  85.8296
 44.7076  7353.34  84.7762
 44.9056  7469.68  85.3307
 45.1036  7552.78  85.4267
 45.3016  7385.48  84.9721
 45.4996  7549.62  85.8441
 45.6976  7398.77  85.1666
 45.8956  7443.18  85.2171
 46.0936  7490.54  85.4951
 46.2916  7423.16  85.0732
 46.4896  7322.46  84.5298
 46.6876  7392.92  85.6525
 46.8856  7370.96  84.7843
 47.0836  7306.07  84.6699
 47.2816  7214.31  84.0095
 47.4796  7333.19  84.8168
 47.6776  7162.62  84.7648
 47.8756  7284.74  84.6497
 48.0736  7312.41  85.272
 48.2716  7184.79  84.3399
 48.4696  7303.9  84.6295
 48.6676  7276.99  85.0609
 48.8656  7324.72  85.0713
 49.0636  7281.84  84.7683
 49.2616  7165.04  84.1169
 49.4596  7247.61  84.16
 49.6576  7203.23  84.1322
 49.8556  7229.37  84.3034
 50.0536  7188.63  84.5107
 50.2516  7155.72  84.46
 50.4496  7123.18  83.9142
 50.6476  7239.14  84.2682
 50.8456  7127.89  83.7027
 51.0436  7128.17  84.1582
 51.2416  6906  82.5185
 51.4396  6750.94  81.9813
 51.6376  6812.3  82.1657
 51.8356  7001.34  82.9184
 52.0336  7033.01  83.6392
 52.2316  6895.59  83.182
 52.4296  6861.42  82.6799
 52.6276  6678.39  81.6779
 52.8256  6908.27  82.6209
 53.0236  6929.5  83.3856
 53.2216  6790.7  82.573
 53.4196  6753.15  82.2622
 53.6176  6963.45  84.0375
 53.8156  6735.11  82.3203
 54.0136  6495.35  81.0205
 54.2116  6652.65  81.628
 54.4096  6476.91  80.602
 54.6076  6499.74  81.092
 54.8056  6326.53  79.7836
 55.0036  6506.9  81.3243
 55.2016  6512.41  80.8733
 55.3996  6290.78  79.4809
 55.5976  6357.48  80.086
 55.7956  6363.65  79.9212
 55.9936  6421.83  80.4406
 56.1916  6316.12  79.8029
 56.3896  6184.18  78.9381
 56.5876  6163.22  79.3497
 56.7856  6142.68  78.7358
 56.9836  6271.31  79.3193
 57.1816  6344.34  80.139
 57.3796  6083.1  78.2982
 57.5776  6174.29  78.7729
 57.7756  6122.91  79.1011
 57.9736  5973.72  77.8005
 58.1716  5961.29  78.0012
 58.3696  5828.12  76.8686
 58.5676  5909.11  76.8762
 58.7656  5862.87  77.2526
 58.9636  5760.52  76.6049
 59.1616  5868.83  77.4516
 59.3596  5916.01  77.0436
 59.5576  6012.54  77.726
 59.7556  5835.21  76.9824
 59.9536  5803.89  76.6764
 60.1516  5915.75  78.2519
 60.1996  0.0000000E+00  0.0000000E+00