File: docs/examples/opeando_xrd/IS17_D/Data/IS17_D/17_Db_f00083.xye
# /beamlines/bl04/projects/cycle2025-II/20250340211-lsimonelli/DATA/IS17_D/17_Db_f00083.xye : mythproc.py merge -s 0.006 -l 0.5 -f /beamlines/bl04/inhouse/ff/FlatField/ff_20Nov2024rod8mm60s_17keV.raw -b True -c true -o xye /beamlines/bl04/projects/cycle2025-II/20250340211-lsimonelli/DATA/IS17_D/17_Db_00083.dat
# IsMon = [6758358, 6756185, 6759295]  IsPos = [-1.4999, -2.4884, -3.4988]
# Wave = 0.4962  CalPath /beamlines/bl04/projects/cycle2025-II/20250340211-lsimonelli/DATA/Align/Si_Pos1_25keV_f00001.cal
# Date = 2025-09-24_16:49:15 Dt = 4.8000  Bin = 0.0060  <imon> = 6757946 +/- 1303 (Min/Max) 6756185 / 6759295
# icurr 250.3616  mocoIn 1.7075E-05  mocoOut 0.8005  i15 7.07897e+06  imon 6.75795e+06  i7 5.3333  iEMpd_timer 4.8000  iEMpd_1 3.2650E-08  iEMpd_2 7.8431E-08  iEMpd_3 1.5830E-08  iEMpd_4 4.6048E-08  iEMhp_timer 4.8000  iEMhp_1 4.8891E-06  iEMhp_2 -2.5335E-08  iEMhp_3 -2.5008E-08  iEMhp_4 -2.1636E-08
#      9776
 1.7416  69160.1  263.05
 1.9396  47592  218.501
 2.1376  35008.1  187.39
 2.3356  31683.8  177.896
 2.5336  29293.9  171.658
 2.7316  26808  164.344
 2.9296  25387.9  160.085
 3.1276  25114  158.751
 3.3256  24269.2  155.737
 3.5236  25994.3  160.975
 3.7216  23977.5  155.846
 3.9196  23382.4  153.111
 4.1176  23323.3  152.701
 4.3156  24250.8  155.875
 4.5136  26961.4  163.336
 4.7116  27690.5  166.664
 4.9096  27114.2  164.35
 5.1076  26862.9  164.169
 5.3056  26974.9  164.227
 5.5036  26809.6  163.646
 5.7016  27093.4  164.463
 5.8996  27787.5  165.787
 6.0976  28748.4  170.048
 6.2956  28601.9  168.97
 6.4936  29171.7  169.835
 6.6916  29436.9  171.59
 6.8896  30384.3  174.169
 7.0876  31358.6  177.697
 7.2856  30976  175.658
 7.4836  31574.2  176.698
 7.6816  32567.6  179.963
 7.8796  33035.5  181.277
 8.0776  35111.9  187.871
 8.2756  36322.5  189.695
 8.4736  36792.9  190.739
 8.6716  35977.3  189.237
 8.8696  36911.7  192.158
 9.0676  36524.9  190.469
 9.2656  35036.9  187.248
 9.4636  33957.6  182.81
 9.6616  33494.1  182.288
 9.8596  32789.8  179.828
 10.0576  30800.4  174.954
 10.2556  30036.4  173.219
 10.4536  30090.4  172.968
 10.6516  29726  172.13
 10.8496  27512.9  164.998
 11.0476  26767  162.773
 11.2456  27153.2  164.492
 11.4436  26388.7  161.32
 11.6416  25624.5  159.302
 11.8396  24591.1  156.251
 12.0376  24082.5  154.284
 12.2356  24142.6  154.898
 12.4336  23809.2  153.371
 12.6316  23613  152.992
 12.8296  23595.1  152.562
 13.0276  24033.3  154.176
 13.2256  24224  155.147
 13.4236  24087.6  154.482
 13.6216  24397.8  155.474
 13.8196  26679.4  162.043
 14.0176  23422.7  152.405
 14.2156  23118.8  150.452
 14.4136  21946.7  147.959
 14.6116  21553  145.83
 14.8096  20886.6  143.538
 15.0076  20162.4  144.909
 15.2056  19282.8  137.546
 15.4036  18253.6  134.641
 15.6016  17810.1  132.098
 15.7996  17390.6  130.797
 15.9976  17073.2  132.485
 16.1956  16908.2  129.706
 16.3936  16499.1  127.309
 16.5916  16135.9  126.55
 16.7896  16285.7  127.184
 16.9876  16187.3  128.27
 17.1856  15786.8  125.072
 17.3836  15364.5  123.297
 17.5816  15212.5  123.161
 17.7796  15022.2  122.325
 17.9776  14840.5  122.36
 18.1756  15004.7  121.765
 18.3736  15076.9  122.553
 18.5716  14386  119.46
 18.7696  14360.4  118.914
 18.9676  14264.3  118.314
 19.1656  13865.6  117.239
 19.3636  13932.5  117.718
 19.5616  13765.2  117.176
 19.7596  14076.9  117.887
 19.9576  14426.8  119.395
 20.1556  13780.9  117.207
 20.3536  13509.2  115.441
 20.5516  13187.7  114.486
 20.7496  13038.1  113.777
 20.9476  13213.7  114.298
 21.1456  12966.4  113.552
 21.3436  12942.8  113.394
 21.5416  12639.3  112.074
 21.7396  12435.4  111.011
 21.9376  12500.9  111.074
 22.1356  12703.3  112.096
 22.3336  12311  110.639
 22.5316  12337.9  110.847
 22.7296  12280.9  109.96
 22.9276  12101  109.813
 23.1256  12404.2  110.659
 23.3236  12432.3  111.344
 23.5216  12524.5  111.377
 23.7196  12271.6  110.214
 23.9176  12392.3  110.509
 24.1156  12167.8  109.965
 24.3136  11987.4  109.959
 24.5116  11961.5  109.357
 24.7096  11627.7  107.638
 24.9076  11515.5  107.142
 25.1056  11139.6  105.841
 25.3036  10870.3  104.077
 25.5016  11004.7  104.752
 25.6996  10951.4  104.081
 25.8976  10970.6  104.597
 26.0956  10816.3  103.867
 26.2936  10730.5  103.132
 26.4916  10919.3  103.894
 26.6896  10532.4  102.341
 26.8876  10629.4  102.658
 27.0856  10354.3  101.384
 27.2836  10241.1  100.715
 27.4816  10303.9  100.968
 27.6796  10173.7  100.682
 27.8776  10463.5  101.963
 28.0756  9967.96  99.8119
 28.2736  10056  99.8358
 28.4716  9783.41  98.5225
 28.6696  9897.69  98.943
 28.8676  9738.3  98.4908
 29.0656  9542.91  97.4773
 29.2636  9637.18  97.7472
 29.4616  9238.46  95.8919
 29.6596  9239.82  95.4754
 29.8576  9096.86  95.4006
 30.0556  9099.96  95.2966
 30.2536  9338.51  96.3356
 30.4516  9485.01  96.7134
 30.6496  9545.51  96.7515
 30.8476  9223.95  95.5569
 31.0456  9380.69  96.3254
 31.2436  9381.89  95.599
 31.4416  9261.5  95.1751
 31.6396  9451.36  96.1926
 31.8376  9299.29  94.9318
 32.0356  9268.37  95.348
 32.2336  9234.17  94.579
 32.4316  8860.07  93.0422
 32.6296  8819.59  92.6673
 32.8276  8872.12  92.7245
 33.0256  8735  92.068
 33.2236  8871.09  92.9254
 33.4216  8765.34  92.0671
 33.6196  8712.2  92.0765
 33.8176  8698.36  92.1726
 34.0156  8540.36  90.9633
 34.2136  8708.07  91.8687
 34.4116  8471.89  90.7879
 34.6096  8470.4  90.6488
 34.8076  8471.53  91.0746
 35.0056  8418.43  90.4504
 35.2036  8577.78  91.534
 35.4016  8299.1  89.9517
 35.5996  8440.24  90.7514
 35.7976  8304.47  90.2858
 35.9956  8470.45  90.8347
 36.1936  8503.11  90.8619
 36.3916  8216.94  89.5142
 36.5896  8330.3  91.1177
 36.7876  7959.77  88.4732
 36.9856  7821.91  87.7305
 37.1836  7991.97  87.7921
 37.3816  7926.36  87.787
 37.5796  7985.58  89.8236
 37.7776  8071.94  88.679
 37.9756  8073  88.5661
 38.1736  8092.27  88.8653
 38.3716  8060.54  88.9609
 38.5696  7935.42  88.6466
 38.7676  7850.32  87.6888
 38.9656  7939.34  87.8167
 39.1636  8001.8  88.4327
 39.3616  7822.3  87.3724
 39.5596  7723.29  87.6463
 39.7576  7723.93  87.0338
 39.9556  7805.29  87.1321
 40.1536  7914.17  87.9337
 40.3516  7874.8  87.7227
 40.5496  7823.16  87.6955
 40.7476  7889.8  88.0772
 40.9456  7977.11  88.3088
 41.1436  8015.6  88.2412
 41.3416  7792.43  87.3414
 41.5396  7832.83  87.3727
 41.7376  7887.1  87.9341
 41.9356  7791.3  87.2614
 42.1336  7976.52  88.4297
 42.3316  7742.5  87.3348
 42.5296  7792.31  87.1264
 42.7276  7773.4  87.2654
 42.9256  7752.3  87.0113
 43.1236  7668.34  86.651
 43.3216  7757.25  86.8961
 43.5196  7678.79  86.5201
 43.7176  7693.78  87.0074
 43.9156  7455.7  85.5675
 44.1136  7509.43  85.4291
 44.3116  7589.2  85.8929
 44.5096  7360.36  84.8964
 44.7076  7468.17  85.4456
 44.9056  7553.36  85.79
 45.1036  7537.29  85.3192
 45.3016  7532.01  85.7787
 45.4996  7491.46  85.504
 45.6976  7340.19  84.8117
 45.8956  7532.17  85.7291
 46.0936  7594.63  86.0914
 46.2916  7445.99  85.2283
 46.4896  7471.75  85.3991
 46.6876  7331.75  85.3108
 46.8856  7305.91  84.4178
 47.0836  7430.97  85.3924
 47.2816  7288.77  84.4529
 47.4796  7434.1  85.3931
 47.6776  7182.68  84.8863
 47.8756  7291.51  84.6961
 48.0736  7298.36  85.1913
 48.2716  7265.42  84.8196
 48.4696  7393.07  85.1499
 48.6676  7280.36  85.0895
 48.8656  7339.83  85.1432
 49.0636  7373.51  85.2902
 49.2616  7162.04  84.1049
 49.4596  7250.63  84.1777
 49.6576  7259.56  84.4577
 49.8556  7198.58  84.1229
 50.0536  7281.34  85.0583
 50.2516  7261.37  85.0715
 50.4496  7152.59  84.0952
 50.6476  7230.97  84.2222
 50.8456  7263.16  84.5017
 51.0436  6946.93  83.0859
 51.2416  7002.8  83.0938
 51.4396  6806.88  82.3249
 51.6376  6998.22  83.3
 51.8356  6942.39  82.582
 52.0336  7051.25  83.7367
 52.2316  6879.96  83.0769
 52.4296  6891.34  82.8434
 52.6276  6880.32  82.8868
 52.8256  6967.73  82.9628
 53.0236  6925.69  83.3687
 53.2216  6931.34  83.4391
 53.4196  6771.85  82.3836
 53.6176  6806.3  83.095
 53.8156  6916.18  83.4278
 54.0136  6547.01  81.3385
 54.2116  6702.99  81.9284
 54.4096  6540.51  81.0042
 54.6076  6503.61  81.1152
 54.8056  6485.23  80.7827
 55.0036  6535.12  81.5097
 55.2016  6586.81  81.3304
 55.3996  6257.83  79.2699
 55.5976  6367.01  80.1566
 55.7956  6412.34  80.2475
 55.9936  6459.56  80.6663
 56.1916  6383.31  80.2219
 56.3896  6179.63  78.9089
 56.5876  6244.55  79.8826
 56.7856  6205.15  79.1298
 56.9836  6303.71  79.5224
 57.1816  6295.19  79.827
 57.3796  6183.39  78.946
 57.5776  6201.14  78.9289
 57.7756  6085.58  78.8789
 57.9736  6026.44  78.1497
 58.1716  6072.61  78.7147
 58.3696  5851.69  77.0429
 58.5676  5918.09  76.9531
 58.7656  5751.96  76.5233
 58.9636  5907.29  77.5811
 59.1616  5823.81  77.1622
 59.3596  5916.77  77.0333
 59.5576  5831.04  76.5288
 59.7556  5678.33  75.9256
 59.9536  5999.05  77.9396
 60.1516  5898.94  78.1253
 60.1996  0.0000000E+00  0.0000000E+00