File: docs/examples/opeando_xrd/IS17_D/Data/IS17_D/17_Db_f00130.xye
# /beamlines/bl04/projects/cycle2025-II/20250340211-lsimonelli/DATA/IS17_D/17_Db_f00130.xye : mythproc.py merge -s 0.006 -l 0.5 -f /beamlines/bl04/inhouse/ff/FlatField/ff_20Nov2024rod8mm60s_17keV.raw -b True -c true -o xye /beamlines/bl04/projects/cycle2025-II/20250340211-lsimonelli/DATA/IS17_D/17_Db_00130.dat
# IsMon = [6737979, 6738277, 6740647]  IsPos = [-1.4999, -2.4884, -3.4988]
# Wave = 0.4962  CalPath /beamlines/bl04/projects/cycle2025-II/20250340211-lsimonelli/DATA/Align/Si_Pos1_25keV_f00001.cal
# Date = 2025-09-25_05:56:15 Dt = 4.8000  Bin = 0.0060  <imon> = 6738968 +/- 1194 (Min/Max) 6737979 / 6740647
# icurr 248.7972  mocoIn 1.6984E-05  mocoOut 0.7969  i15 7.0614e+06  imon 6.73897e+06  i7 5.6667  iEMpd_timer 4.8000  iEMpd_1 3.5666E-08  iEMpd_2 7.9299E-08  iEMpd_3 1.8872E-08  iEMpd_4 4.9376E-08  iEMhp_timer 4.8000  iEMhp_1 4.8608E-06  iEMhp_2 -2.6044E-08  iEMhp_3 -2.5432E-08  iEMhp_4 -2.2996E-08
#      9776
 1.7416  69718.2  264.137
 1.9396  48209.7  219.934
 2.1376  35553.1  188.863
 2.3356  31319.9  176.89
 2.5336  29676.8  172.794
 2.7316  26914.3  164.67
 2.9296  25452.6  160.291
 3.1276  25287.1  159.308
 3.3256  24523.1  156.544
 3.5236  26027.7  161.083
 3.7216  23955.8  155.777
 3.9196  23440.1  153.301
 4.1176  23453.9  153.132
 4.3156  24420.8  156.418
 4.5136  26605.5  162.251
 4.7116  27712  166.728
 4.9096  27029.7  164.091
 5.1076  26615.5  163.416
 5.3056  26834.5  163.795
 5.5036  26674.6  163.231
 5.7016  27174.1  164.707
 5.8996  27665.5  165.424
 6.0976  28570.2  169.524
 6.2956  28536.4  168.772
 6.4936  29286.2  170.167
 6.6916  29569.5  171.977
 6.8896  30536  174.606
 7.0876  31338.4  177.638
 7.2856  31240.4  176.41
 7.4836  31830.3  177.41
 7.6816  32607.6  180.092
 7.8796  33386.2  182.234
 8.0776  35046.1  187.685
 8.2756  36677  190.615
 8.4736  37347.6  192.164
 8.6716  36380  190.284
 8.8696  37513.2  193.725
 9.0676  36699.6  190.931
 9.2656  35657  188.9
 9.4636  34711.8  184.833
 9.6616  34072.8  183.86
 9.8596  33400.1  181.492
 10.0576  31273.9  176.302
 10.2556  30573.4  174.763
 10.4536  30017.3  172.762
 10.6516  29598.3  171.759
 10.8496  27652.3  165.422
 11.0476  27145  163.909
 11.2456  26755.7  163.276
 11.4436  27310.2  164.11
 11.6416  25948.8  160.321
 11.8396  24963.3  157.436
 12.0376  24265.5  154.865
 12.2356  24159.8  154.951
 12.4336  24145.2  154.447
 12.6316  23901.3  153.925
 12.8296  24078  154.11
 13.0276  24352.5  155.193
 13.2256  24292  155.367
 13.4236  24228.7  154.934
 13.6216  24721.1  156.501
 13.8196  26826.8  162.513
 14.0176  23733.6  153.413
 14.2156  23535.8  151.805
 14.4136  22239.1  148.94
 14.6116  21902.1  147.002
 14.8096  21103.5  144.28
 15.0076  20231  145.159
 15.2056  19118.6  136.953
 15.4036  18230.3  134.547
 15.6016  18086.4  133.112
 15.7996  17497.1  131.181
 15.9976  17277  133.257
 16.1956  16969.3  129.95
 16.3936  16652.6  127.916
 16.5916  16415  127.644
 16.7896  16524.9  128.123
 16.9876  16348.8  128.909
 17.1856  15794.5  125.102
 17.3836  15563.7  124.095
 17.5816  15425.3  124.026
 17.7796  15078.2  122.55
 17.9776  14860.7  122.433
 18.1756  15101.9  122.158
 18.3736  14759.6  121.252
 18.5716  14531.6  120.063
 18.7696  14482.2  119.422
 18.9676  14399.7  118.882
 19.1656  13997.3  117.791
 19.3636  14032.6  118.139
 19.5616  13906.2  117.769
 19.7596  14320.4  118.904
 19.9576  14804.6  120.942
 20.1556  13825.2  117.392
 20.3536  13598.5  115.816
 20.5516  13436.2  115.573
 20.7496  12990.3  113.571
 20.9476  13250.6  114.466
 21.1456  13018.8  113.78
 21.3436  12940.8  113.387
 21.5416  12700.9  112.347
 21.7396  12617.6  111.817
 21.9376  12586.5  111.453
 22.1356  12763.1  112.359
 22.3336  12420.7  111.125
 22.5316  12443  111.313
 22.7296  12423.6  110.597
 22.9276  12277.4  110.606
 23.1256  12477.7  110.983
 23.3236  12605.9  112.124
 23.5216  12468.7  111.152
 23.7196  12357.8  110.608
 23.9176  12430.1  110.678
 24.1156  12233.7  110.265
 24.3136  11759.8  108.901
 24.5116  12198.4  110.437
 24.7096  11628.7  107.639
 24.9076  11471.7  106.943
 25.1056  11179.8  106.037
 25.3036  11017  104.769
 25.5016  11072.8  105.072
 25.6996  11009.6  104.362
 25.8976  11034  104.91
 26.0956  10913.7  104.342
 26.2936  10884.2  103.869
 26.4916  11054.5  104.533
 26.6896  10697.7  103.135
 26.8876  10717.1  103.086
 27.0856  10466.6  101.934
 27.2836  10287.1  100.945
 27.4816  10254.1  100.721
 27.6796  10259.1  101.111
 27.8776  10445.4  101.878
 28.0756  10074.5  100.346
 28.2736  10004.6  99.5794
 28.4716  9901.38  99.1203
 28.6696  9906.2  98.9874
 28.8676  9761.99  98.613
 29.0656  9649.45  98.0176
 29.2636  9770.27  98.4267
 29.4616  9385.57  96.6427
 29.6596  9385.89  96.2214
 29.8576  9280  96.3535
 30.0556  9429.91  96.9946
 30.2536  9265.21  95.9474
 30.4516  9507.53  96.8272
 30.6496  9545.98  96.7679
 30.8476  9407.98  96.5065
 31.0456  9381.88  96.339
 31.2436  9514.56  96.2794
 31.4416  9308.25  95.4153
 31.6396  9391.33  95.8805
 31.8376  9442.26  95.6555
 32.0356  9383.03  95.948
 32.2336  9278.42  94.8022
 32.4316  9014.54  93.8502
 32.6296  8959.62  93.3992
 32.8276  8961.39  93.1964
 33.0256  8902.34  92.9487
 33.2236  8982.16  93.5103
 33.4216  8883.06  92.6821
 33.6196  8875.04  92.9338
 33.8176  8786.89  92.6251
 34.0156  8710.59  91.8646
 34.2136  8770.35  92.1997
 34.4116  8505.71  90.9659
 34.6096  8575.65  91.2162
 34.8076  8483.32  91.1351
 35.0056  8504.55  90.9086
 35.2036  8735.96  92.3832
 35.4016  8398.46  90.4886
 35.5996  8406.34  90.5652
 35.7976  8299.85  90.2641
 35.9956  8608.52  91.5753
 36.1936  8440.75  90.527
 36.3916  8290.86  89.918
 36.5896  8264.76  90.7576
 36.7876  8062.07  89.03
 36.9856  8063.63  89.0656
 37.1836  8002.01  87.8426
 37.3816  7985.17  88.1091
 37.5796  8042.96  90.1483
 37.7776  8158.54  89.1583
 37.9756  8090.9  88.6675
 38.1736  8410.08  90.5942
 38.3716  7998.21  88.6151
 38.5696  7921.69  88.569
 38.7676  7891.82  87.9209
 38.9656  8032.43  88.3185
 39.1636  7939.09  88.0872
 39.3616  7988.64  88.2931
 39.5596  7740.99  87.7432
 39.7576  7814.64  87.5427
 39.9556  7907.31  87.6998
 40.1536  7994.83  88.3818
 40.3516  7949.71  88.1499
 40.5496  7939.16  88.3402
 40.7476  7967.09  88.4923
 40.9456  8059.09  88.763
 41.1436  8079.26  88.5974
 41.3416  7870.28  87.7703
 41.5396  7830  87.365
 41.7376  7853.52  87.7515
 41.9356  7837.51  87.5132
 42.1336  8044.86  88.8157
 42.3316  7804.5  87.6798
 42.5296  7889.7  87.6726
 42.7276  7756.42  87.1652
 42.9256  7776.58  87.1568
 43.1236  7817.36  87.4822
 43.3216  7853.02  87.4363
 43.5196  7709.58  86.6992
 43.7176  7665.27  86.8383
 43.9156  7561.56  86.1651
 44.1136  7489.19  85.3103
 44.3116  7649.89  86.2314
 44.5096  7512.17  85.761
 44.7076  7621.78  86.315
 44.9056  7711.57  86.6882
 45.1036  7560.92  85.4612
 45.3016  7595.81  86.1593
 45.4996  7580.26  86.0065
 45.6976  7367.09  84.9691
 45.8956  7567.65  85.9409
 46.0936  7587.4  86.0534
 46.2916  7545.78  85.7881
 46.4896  7561.72  85.9233
 46.6876  7541.53  86.5182
 46.8856  7399.4  84.9398
 47.0836  7371.05  85.0459
 47.2816  7336.82  84.7325
 47.4796  7459.77  85.539
 47.6776  7253.75  85.3099
 47.8756  7433.48  85.5132
 48.0736  7377.26  85.6487
 48.2716  7346.53  85.2882
 48.4696  7357.41  84.9371
 48.6676  7430.16  85.9537
 48.8656  7408.49  85.5419
 49.0636  7415.4  85.5433
 49.2616  7246.97  84.6006
 49.4596  7367.9  84.8566
 49.6576  7395.16  85.2355
 49.8556  7235.85  84.3415
 50.0536  7311.05  85.2288
 50.2516  7329.07  85.4672
 50.4496  7341.81  85.197
 50.6476  7226.64  84.1987
 50.8456  7350.37  85.0068
 51.0436  7086.18  83.9163
 51.2416  7085.06  83.5766
 51.4396  6960.98  83.2495
 51.6376  6992.9  83.2618
 51.8356  7013.39  82.9852
 52.0336  6958.95  83.1917
 52.2316  6908.68  83.241
 52.4296  6969.46  83.3136
 52.6276  6863.45  82.7841
 52.8256  7022  83.2891
 53.0236  7032.54  84.0081
 53.2216  6976.34  83.7111
 53.4196  6949.51  83.4609
 53.6176  6875.43  83.5103
 53.8156  6912.98  83.41
 54.0136  6603.28  81.6823
 54.2116  6738.98  82.1431
 54.4096  6563.8  81.1504
 54.6076  6603.81  81.7246
 54.8056  6518.72  80.9938
 55.0036  6547.93  81.5901
 55.2016  6633.23  81.6108
 55.3996  6363.67  79.9396
 55.5976  6381.24  80.2368
 55.7956  6434.54  80.3851
 55.9936  6552.36  81.2406
 56.1916  6301.14  79.7166
 56.3896  6247.44  79.3463
 56.5876  6298.09  80.2248
 56.7856  6281.52  79.6097
 56.9836  6377.17  79.9869
 57.1816  6400.01  80.5091
 57.3796  6212.18  79.1265
 57.5776  6206.52  78.9657
 57.7756  6223.48  79.7598
 57.9736  6210.79  79.3488
 58.1716  6105.55  78.9364
 58.3696  5973.13  77.8339
 58.5676  5992.54  77.4338
 58.7656  5838.07  77.092
 58.9636  5838.27  77.1188
 59.1616  6007.31  78.3602
 59.3596  5921.4  77.0618
 59.5576  5867.57  76.7663
 59.7556  5841.49  77.0068
 59.9536  5983.94  77.8394
 60.1516  5961.44  78.5361
 60.1996  0.0000000E+00  0.0000000E+00