File: docs/examples/opeando_xrd/IS17_D/Data/IS17_D/17_Db_f00117.xye
# /beamlines/bl04/projects/cycle2025-II/20250340211-lsimonelli/DATA/IS17_D/17_Db_f00117.xye : mythproc.py merge -s 0.006 -l 0.5 -f /beamlines/bl04/inhouse/ff/FlatField/ff_20Nov2024rod8mm60s_17keV.raw -b True -c true -o xye /beamlines/bl04/projects/cycle2025-II/20250340211-lsimonelli/DATA/IS17_D/17_Db_00117.dat
# IsMon = [6789898, 6786133, 6782450]  IsPos = [-1.4999, -2.4884, -3.4988]
# Wave = 0.4962  CalPath /beamlines/bl04/projects/cycle2025-II/20250340211-lsimonelli/DATA/Align/Si_Pos1_25keV_f00001.cal
# Date = 2025-09-25_02:18:32 Dt = 4.8000  Bin = 0.0060  <imon> = 6786160 +/- 3041 (Min/Max) 6782450 / 6789898
# icurr 252.9444  mocoIn 1.7256E-05  mocoOut 0.8090  i15 7.10952e+06  imon 6.78616e+06  i7 6.0000  iEMpd_timer 4.8000  iEMpd_1 3.5193E-08  iEMpd_2 8.0225E-08  iEMpd_3 1.7429E-08  iEMpd_4 4.8132E-08  iEMhp_timer 4.8000  iEMhp_1 4.9418E-06  iEMhp_2 -2.3896E-08  iEMhp_3 -2.5970E-08  iEMhp_4 -2.1344E-08
#      9776
 1.7416  70810.3  266.105
 1.9396  49274.4  222.266
 2.1376  36283  190.725
 2.3356  32864.9  181.138
 2.5336  30800.7  175.974
 2.7316  28180.2  168.465
 2.9296  27306.5  165.993
 3.1276  26674.8  163.587
 3.3256  25625.5  160.008
 3.5236  27119.7  164.399
 3.7216  24984  159.086
 3.9196  24293.8  156.055
 4.1176  24325.6  155.936
 4.3156  25165.7  158.806
 4.5136  27244.9  164.185
 4.7116  28416.6  168.835
 4.9096  27880.4  166.658
 5.1076  27598.5  166.391
 5.3056  27459.5  165.714
 5.5036  27239.2  164.948
 5.7016  27738.3  166.411
 5.8996  28297.4  167.3
 6.0976  29298  171.647
 6.2956  29343.4  171.153
 6.4936  30098.4  172.508
 6.6916  30440.5  174.49
 6.8896  31216.7  176.546
 7.0876  32136.9  179.888
 7.2856  32267.5  179.285
 7.4836  32652.1  179.686
 7.6816  33345  182.1
 7.8796  34307.8  184.756
 8.0776  35820.5  189.78
 8.2756  37576.5  192.986
 8.4736  38006.4  193.886
 8.6716  37341.2  192.798
 8.8696  38125.2  195.303
 9.0676  37441.7  192.861
 9.2656  36464.4  191.033
 9.4636  35810.7  187.763
 9.6616  34526.3  185.096
 9.8596  34051.7  183.223
 10.0576  31788  177.713
 10.2556  31011.6  175.969
 10.4536  29889.9  172.35
 10.6516  29121  170.336
 10.8496  27884.7  166.115
 11.0476  27186.9  164.042
 11.2456  26634.5  162.902
 11.4436  26970.5  163.092
 11.6416  27289.1  164.402
 11.8396  25580.4  159.35
 12.0376  24926.5  156.98
 12.2356  24458.9  155.903
 12.4336  24357.4  155.116
 12.6316  24271.7  155.095
 12.8296  24387.6  155.094
 13.0276  24853.3  156.79
 13.2256  25091.7  157.899
 13.4236  24925.5  157.148
 13.6216  25188.3  157.957
 13.8196  27260.7  163.816
 14.0176  24234.3  155.038
 14.2156  23887.9  152.928
 14.4136  22758.1  150.668
 14.6116  22373  148.576
 14.8096  21736.4  146.442
 15.0076  20779.4  147.098
 15.2056  19650  138.863
 15.4036  18758.3  136.506
 15.6016  18437.2  134.419
 15.7996  18041.6  133.247
 15.9976  17706.1  134.91
 16.1956  17447.8  131.767
 16.3936  17154.3  129.829
 16.5916  16695.5  128.739
 16.7896  16831.7  129.311
 16.9876  16654.6  130.094
 17.1856  16435.8  127.593
 17.3836  16122  126.274
 17.5816  15395.3  123.871
 17.7796  15391.1  123.78
 17.9776  14880.2  122.509
 18.1756  14953.2  121.554
 18.3736  14621.9  120.682
 18.5716  14516  119.997
 18.7696  14613.6  119.962
 18.9676  14448.7  119.073
 19.1656  14096.5  118.217
 19.3636  14149.8  118.631
 19.5616  14128.6  118.71
 19.7596  14311.5  118.865
 19.9576  14484.6  119.632
 20.1556  14967.9  122.165
 20.3536  14155.6  118.165
 20.5516  13697.7  116.686
 20.7496  13435.9  115.497
 20.9476  13543.7  115.711
 21.1456  13252.1  114.804
 21.3436  13152  114.311
 21.5416  12893.7  113.196
 21.7396  12847.8  112.834
 21.9376  12863.5  112.683
 22.1356  12947.9  113.168
 22.3336  12461.7  111.319
 22.5316  12721.8  112.57
 22.7296  12600.7  111.401
 22.9276  12351.9  110.957
 23.1256  12783.2  112.36
 23.3236  12927.8  113.548
 23.5216  12871.9  112.932
 23.7196  12569.2  111.549
 23.9176  12752.6  112.098
 24.1156  12390.1  110.969
 24.3136  12109.3  110.496
 24.5116  12228.4  110.554
 24.7096  11860.5  108.693
 24.9076  11704.5  107.996
 25.1056  11527.9  107.656
 25.3036  11254.4  105.896
 25.5016  11165.3  105.516
 25.6996  11359  106.004
 25.8976  11176.1  105.572
 26.0956  11027.4  104.881
 26.2936  11016.5  104.494
 26.4916  11175.9  105.101
 26.6896  10945.8  104.32
 26.8876  10824.9  103.587
 27.0856  10703.5  103.09
 27.2836  10488.9  101.928
 27.4816  10370.8  101.29
 27.6796  10349.1  101.554
 27.8776  10674.2  102.984
 28.0756  10252  101.226
 28.2736  10256  100.823
 28.4716  10120.3  100.2
 28.6696  10021.4  99.5661
 28.8676  9912.4  99.3743
 29.0656  9820.43  98.8825
 29.2636  9903.15  99.0834
 29.4616  9760.35  98.5764
 29.6596  9665.36  97.6611
 29.8576  9391.52  96.9465
 30.0556  9376.08  96.7511
 30.2536  9560.95  97.487
 30.4516  9737.4  97.9869
 30.6496  9695.19  97.5201
 30.8476  9696.82  97.9709
 31.0456  9757.53  98.2357
 31.2436  9669.77  97.0465
 31.4416  9524.78  96.5001
 31.6396  9493.68  96.3771
 31.8376  9418.46  95.5209
 32.0356  9388.63  95.9426
 32.2336  9418.66  95.4936
 32.4316  9098.96  94.2873
 32.6296  9151.59  94.3863
 32.8276  9152.36  94.1865
 33.0256  8976.67  93.3327
 33.2236  9070.03  93.9632
 33.4216  8972.06  93.1541
 33.6196  9064.29  93.9227
 33.8176  8991.27  93.713
 34.0156  8924.68  92.987
 34.2136  8984.7  93.3052
 34.4116  8686.32  91.9321
 34.6096  8653.19  91.6253
 34.8076  8572.98  91.6175
 35.0056  8852.88  92.7579
 35.2036  8906.74  93.2687
 35.4016  8546.7  91.2863
 35.5996  8548.37  91.3264
 35.7976  8439.24  91.0089
 35.9956  8640.14  91.7419
 36.1936  8532.62  91.026
 36.3916  8431.17  90.6702
 36.5896  8493.35  91.9996
 36.7876  8229.06  89.9684
 36.9856  8108.35  89.3299
 37.1836  8228.09  89.083
 37.3816  8093.88  88.7258
 37.5796  8268.67  91.4043
 37.7776  8282.27  89.824
 37.9756  8297.48  89.7883
 38.1736  8382.25  90.439
 38.3716  8133.33  89.3633
 38.5696  8064.46  89.3674
 38.7676  8134.27  89.2408
 38.9656  8122.74  88.802
 39.1636  8141.03  89.182
 39.3616  7952.96  88.0839
 39.5596  8018.76  89.2912
 39.7576  7953.59  88.3174
 39.9556  8081.38  88.6626
 40.1536  8111.86  89.028
 40.3516  8070.59  88.8071
 40.5496  8103.09  89.2435
 40.7476  8112.94  89.3091
 40.9456  8152.36  89.2761
 41.1436  8230.04  89.407
 41.3416  7951.35  88.2304
 41.5396  7976.73  88.1764
 41.7376  7973.14  88.4165
 41.9356  7943.74  88.1091
 42.1336  8171.42  89.4982
 42.3316  7935.14  88.4162
 42.5296  8012.79  88.3564
 42.7276  7990.54  88.4739
 42.9256  8006.92  88.4391
 43.1236  7965.74  88.3143
 43.3216  7880.24  87.5777
 43.5196  7948.96  88.0211
 43.7176  7886.51  88.0807
 43.9156  7691.14  86.9134
 44.1136  7585.54  85.8722
 44.3116  7691.77  86.4884
 44.5096  7652.6  86.5725
 44.7076  7636.9  86.4124
 44.9056  7799.03  87.1799
 45.1036  7694.19  86.1991
 45.3016  7799.96  87.3069
 45.4996  7759.26  87.0238
 45.6976  7511.96  85.8118
 45.8956  7805.28  87.2629
 46.0936  7790.9  87.1795
 46.2916  7673.51  86.4992
 46.4896  7721.83  86.8013
 46.6876  7701.05  87.4158
 46.8856  7514.7  85.6199
 47.0836  7568.42  86.1707
 47.2816  7458.05  85.4264
 47.4796  7641.24  86.5818
 47.6776  7478.79  86.6261
 47.8756  7588.21  86.396
 48.0736  7506.76  86.3972
 48.2716  7481.38  86.067
 48.4696  7568.16  86.1561
 48.6676  7592.39  86.8973
 48.8656  7442.71  85.7469
 49.0636  7553.79  86.3242
 49.2616  7447.45  85.7677
 49.4596  7496.52  85.5903
 49.6576  7363.24  85.0602
 49.8556  7535.96  86.0719
 50.0536  7449.91  86.0423
 50.2516  7457.07  86.2176
 50.4496  7417.97  85.6352
 50.6476  7445.29  85.4602
 50.8456  7457.55  85.6274
 51.0436  7188.31  84.5333
 51.2416  7268.29  84.6679
 51.4396  6924.31  83.0444
 51.6376  7150.41  84.2012
 51.8356  7131.75  83.7045
 52.0336  7122.54  84.167
 52.2316  7194.66  84.9616
 52.4296  7099.81  84.0983
 52.6276  6983.62  83.5147
 52.8256  7191.94  84.2941
 53.0236  7166.73  84.788
 53.2216  7117.9  84.5399
 53.4196  7156.71  84.6685
 53.6176  6980.58  84.1367
 53.8156  6962.96  83.6975
 54.0136  6770.1  82.7209
 54.2116  6930.13  83.3006
 54.4096  6829.79  82.7829
 54.6076  6703.06  82.34
 54.8056  6545.67  81.1499
 55.0036  6617.82  82.0198
 55.2016  6802.75  82.6428
 55.3996  6561.4  81.1627
 55.5976  6541  81.2421
 55.7956  6582.7  81.3077
 55.9936  6683.17  82.0511
 56.1916  6543.24  81.22
 56.3896  6438.36  80.5431
 56.5876  6528.6  81.6765
 56.7856  6334.48  79.9491
 56.9836  6514.37  80.8457
 57.1816  6588.87  81.6708
 57.3796  6367.55  80.1074
 57.5776  6365.53  79.9907
 57.7756  6259.28  79.9856
 57.9736  6333.52  80.1092
 58.1716  6292.93  80.1417
 58.3696  6137.35  78.8993
 58.5676  6106.74  78.1662
 58.7656  6069.05  78.6156
 58.9636  6099.42  78.839
 59.1616  6173.04  79.4491
 59.3596  6119.18  78.3691
 59.5576  6137.17  78.5413
 59.7556  6039.27  78.3308
 59.9536  6073.67  78.4521
 60.1516  6070.6  79.2835
 60.1996  0.0000000E+00  0.0000000E+00