File: docs/examples/opeando_xrd/IS17_D/Data/IS17_D/17_Db_f00011.xye
# /beamlines/bl04/projects/cycle2025-II/20250340211-lsimonelli/DATA/IS17_D/17_Db_f00011.xye : mythproc.py merge -s 0.006 -l 0.5 -f /beamlines/bl04/inhouse/ff/FlatField/ff_20Nov2024rod8mm60s_17keV.raw -b True -c true -o xye /beamlines/bl04/projects/cycle2025-II/20250340211-lsimonelli/DATA/IS17_D/17_Db_00011.dat
# IsMon = [6762962, 6758160, 6759253]  IsPos = [-1.5000, -2.4885, -3.4986]
# Wave = 0.4962  CalPath /beamlines/bl04/projects/cycle2025-II/20250340211-lsimonelli/DATA/Align/Si_Pos1_25keV_f00001.cal
# Date = 2025-09-23_20:44:56 Dt = 4.8000  Bin = 0.0060  <imon> = 6760125 +/- 2055 (Min/Max) 6758160 / 6762962
# icurr 251.3542  mocoIn 1.7150E-05  mocoOut 0.8048  i15 7.07924e+06  imon 6.76012e+06  i7 4.0000  iEMpd_timer 4.8000  iEMpd_1 3.4903E-08  iEMpd_2 7.8011E-08  iEMpd_3 1.7141E-08  iEMpd_4 4.6995E-08  iEMhp_timer 4.8000  iEMhp_1 4.9120E-06  iEMhp_2 -2.3294E-08  iEMhp_3 -2.3031E-08  iEMhp_4 -2.1757E-08
#      9776
 1.7416  68309.1  261.38
 1.9396  46785.9  216.603
 2.1376  33796.4  184.085
 2.3356  30216.4  173.697
 2.5336  31155.5  176.996
 2.7316  26181.6  162.398
 2.9296  24494  157.225
 3.1276  24061.3  155.381
 3.3256  23244.9  152.408
 3.5236  24958.5  157.861
 3.7216  22727.2  151.731
 3.9196  22674.6  150.762
 4.1176  22145.3  148.789
 4.3156  23168.7  152.362
 4.5136  26192.8  160.992
 4.7116  26942.2  164.4
 4.9096  26047.3  161.068
 5.1076  25502.5  159.945
 5.3056  25867.8  160.712
 5.5036  25060.2  158.23
 5.7016  25482.7  159.503
 5.8996  25869.8  159.966
 6.0976  26784.1  164.131
 6.2956  27101.8  164.482
 6.4936  28019.7  166.449
 6.6916  28265.9  168.123
 6.8896  29344.7  171.172
 7.0876  30263.8  174.467
 7.2856  29778.8  172.227
 7.4836  30707.4  174.249
 7.6816  31147.5  175.993
 7.8796  31843.4  177.989
 8.0776  35813.8  189.757
 8.2756  36175  189.333
 8.4736  35707.8  187.92
 8.6716  35209.9  187.221
 8.8696  37101.1  192.649
 9.0676  36236.8  189.722
 9.2656  33957  184.333
 9.4636  32930.3  180.03
 9.6616  32133.9  178.551
 9.8596  31489.5  176.203
 10.0576  29693.4  171.77
 10.2556  28647.2  169.152
 10.4536  32662.4  180.19
 10.6516  33113.7  181.658
 10.8496  26201.6  161.023
 11.0476  25945.5  160.208
 11.2456  28766.7  169.306
 11.4436  25288.9  157.924
 11.6416  24765.8  156.609
 11.8396  23870.5  153.942
 12.0376  22898.2  150.433
 12.2356  24461.8  155.944
 12.4336  23547.3  152.515
 12.6316  22650.2  149.831
 12.8296  23162.8  151.155
 13.0276  23175.7  151.397
 13.2256  23162.2  151.704
 13.4236  23116.5  151.334
 13.6216  23555.4  152.754
 13.8196  26485.7  161.402
 14.0176  22740.2  150.178
 14.2156  22345.5  147.912
 14.4136  21093.8  145.055
 14.6116  20838.5  143.392
 14.8096  19967.8  140.343
 15.0076  19359  141.987
 15.2056  18212.8  133.679
 15.4036  17558.2  132.067
 15.6016  17301.9  130.211
 15.7996  16894.5  128.93
 15.9976  16516.8  130.293
 16.1956  16291  127.323
 16.3936  15694.6  124.165
 16.5916  15890.3  125.584
 16.7896  15621.2  124.565
 16.9876  15582.8  125.846
 17.1856  15490.9  123.892
 17.3836  14720.1  120.672
 17.5816  14447  120.014
 17.7796  14583.9  120.503
 17.9776  14494.8  120.909
 18.1756  15741.8  124.718
 18.3736  15364.2  123.706
 18.5716  13848.9  117.204
 18.7696  13899.3  116.985
 18.9676  13588.2  115.476
 19.1656  13284.6  114.755
 19.3636  13236.5  114.738
 19.5616  13222.2  114.832
 19.7596  13504.4  115.458
 19.9576  14050.3  117.829
 20.1556  13006.7  113.873
 20.3536  12976.1  113.136
 20.5516  12631.2  112.051
 20.7496  12561.4  111.593
 20.9476  13051.9  113.594
 21.1456  12772.1  112.707
 21.3436  12504.6  111.468
 21.5416  12339.6  110.735
 21.7396  11969.6  108.913
 21.9376  12017.5  108.91
 22.1356  12371.1  110.648
 22.3336  12071.3  109.544
 22.5316  11869.7  108.732
 22.7296  11773.2  107.672
 22.9276  11651.5  107.76
 23.1256  12137.3  109.471
 23.3236  11951.3  109.168
 23.5216  12160.9  109.758
 23.7196  12036.5  109.358
 23.9176  12033.6  108.885
 24.1156  11799.3  108.286
 24.3136  11702.4  108.639
 24.5116  11575  107.568
 24.7096  11432.5  106.723
 24.9076  11180.2  105.564
 25.1056  11058.3  105.188
 25.3036  10611.6  102.829
 25.5016  10671  103.149
 25.6996  10812.1  103.42
 25.8976  10863.7  104.084
 26.0956  10652.2  103.09
 26.2936  10536.3  102.195
 26.4916  10818.3  103.41
 26.6896  10518.8  102.263
 26.8876  10258.2  100.848
 27.0856  10235.6  100.771
 27.2836  9932.38  99.347
 27.4816  9999.44  99.4659
 27.6796  9888.83  99.2608
 27.8776  10374.3  101.528
 28.0756  9763.91  98.7929
 28.2736  9902.87  99.0684
 28.4716  9573.27  97.4592
 28.6696  9612.41  97.5116
 28.8676  9586.36  97.721
 29.0656  9274.04  96.0867
 29.2636  9565.5  97.2964
 29.4616  9148.14  95.4301
 29.6596  9044.26  94.4682
 29.8576  8914.7  94.4511
 30.0556  9142.16  95.5182
 30.2536  8886.05  93.9796
 30.4516  9188.01  95.1893
 30.6496  9054.66  94.2439
 30.8476  9129.27  95.0497
 31.0456  9019.62  94.4494
 31.2436  9040.78  93.8374
 31.4416  8866.36  93.1153
 31.6396  9413.02  95.9905
 31.8376  9091.34  93.8718
 32.0356  8951.92  93.7021
 32.2336  8874.37  92.7025
 32.4316  8699.72  92.1991
 32.6296  8632.77  91.6148
 32.8276  8620.53  91.407
 33.0256  8509.97  90.8745
 33.2236  8627.51  91.6354
 33.4216  8600.01  91.1953
 33.6196  8410.84  90.4722
 33.8176  8489.85  91.0568
 34.0156  8399.28  90.2057
 34.2136  8457.7  90.5418
 34.4116  8245.17  89.5625
 34.6096  8340.98  89.9591
 34.8076  8219.65  89.7096
 35.0056  8141.34  88.9465
 35.2036  8400.51  90.5792
 35.4016  8120.73  88.9844
 35.5996  8228.45  89.5964
 35.7976  8155.42  89.471
 35.9956  8266.58  89.7366
 36.1936  8161.77  89.0161
 36.3916  7956.52  88.0809
 36.5896  8298.73  91.4071
 36.7876  7769.9  87.4139
 36.9856  7811.33  87.6727
 37.1836  7737.41  86.3782
 37.3816  7764.06  86.8926
 37.5796  7823.23  88.9057
 37.7776  7849.9  87.4427
 37.9756  7893.26  87.5681
 38.1736  8089.53  88.8503
 38.3716  7848.67  87.7798
 38.5696  7638.97  86.9694
 38.7676  7667.41  86.6546
 38.9656  7638.08  86.1121
 39.1636  7731.57  86.889
 39.3616  7706.86  86.719
 39.5596  7583.77  86.8535
 39.7576  7558.82  86.1004
 39.9556  7636.22  86.1875
 40.1536  7719.76  86.8419
 40.3516  7716.1  86.9197
 40.5496  7736.97  86.9959
 40.7476  7726.52  87.1465
 40.9456  7750.51  87.049
 41.1436  7831.22  87.2163
 41.3416  7593.34  86.2206
 41.5396  7642.46  86.3118
 41.7376  7672.42  86.7317
 41.9356  7619.16  86.282
 42.1336  7756.43  87.1969
 42.3316  7581.61  86.4266
 42.5296  7636.56  86.2511
 42.7276  7593.89  86.2557
 42.9256  7656.61  86.4797
 43.1236  7547.96  85.9626
 43.3216  7605.19  86.1449
 43.5196  7463.1  85.2984
 43.7176  7381.97  85.221
 43.9156  7226.72  84.2387
 44.1136  7328.62  84.4021
 44.3116  7385.07  84.7416
 44.5096  7250.86  84.2701
 44.7076  7332.81  84.6751
 44.9056  7549.22  85.7667
 45.1036  7456.44  84.8582
 45.3016  7362.41  84.8197
 45.4996  7297.71  84.3905
 45.6976  7232.48  84.1885
 45.8956  7337.87  84.6124
 46.0936  7522.37  85.4177
 46.2916  7336.64  84.5806
 46.4896  7479.26  85.4423
 46.6876  7273.09  84.962
 46.8856  7172.44  83.7654
 47.0836  7241  84.2777
 47.2816  7142.7  83.6037
 47.4796  7131.86  83.6428
 47.6776  7087.67  84.3221
 47.8756  7194.68  84.1245
 48.0736  7244.11  84.8425
 48.2716  7070.75  83.676
 48.4696  7307  84.6331
 48.6676  7174.56  84.4644
 48.8656  7120.29  83.8553
 49.0636  7270.09  84.683
 49.2616  7076.29  83.6039
 49.4596  7162.65  83.6586
 49.6576  7118.37  83.6242
 49.8556  7071.19  83.376
 50.0536  7149.43  84.2851
 50.2516  7070.79  83.9336
 50.4496  7033.04  83.3857
 50.6476  7020.77  82.9818
 50.8456  7148.49  83.8326
 51.0436  6900.3  82.815
 51.2416  6860.05  82.252
 51.4396  6688.41  81.6133
 51.6376  6835.32  82.3287
 51.8356  6822.18  81.8708
 52.0336  6854.42  82.564
 52.2316  6671.85  81.8075
 52.4296  6665.53  81.4771
 52.6276  6677.21  81.6495
 52.8256  6829.6  82.1365
 53.0236  6785.62  82.5142
 53.2216  6764.01  82.4075
 53.4196  6746.65  82.2157
 53.6176  6777.75  82.9105
 53.8156  6746.18  82.3861
 54.0136  6517.34  81.1478
 54.2116  6638.25  81.5314
 54.4096  6399.59  80.1307
 54.6076  6389.85  80.4139
 54.8056  6395.72  80.2175
 55.0036  6472.29  80.9661
 55.2016  6382.13  79.9782
 55.3996  6177.34  78.7534
 55.5976  6257.96  79.4656
 55.7956  6265.05  79.2881
 55.9936  6445.29  80.5745
 56.1916  6221.35  79.2043
 56.3896  6069.34  78.2147
 56.5876  6079.16  78.8131
 56.7856  6105.02  78.4693
 56.9836  6235.26  79.0798
 57.1816  6219.96  79.3469
 57.3796  6065.11  78.1579
 57.5776  6166.29  78.7079
 57.7756  5995.58  78.278
 57.9736  5912.21  77.3881
 58.1716  5985.23  78.1525
 58.3696  5767.68  76.4943
 58.5676  5807.28  76.2345
 58.7656  5673.33  76.0071
 58.9636  5815.52  76.9765
 59.1616  5725.69  76.5148
 59.3596  5863.8  76.7005
 59.5576  5766.25  76.115
 59.7556  5723.53  76.2398
 59.9536  5889.43  77.2369
 60.1516  5549.1  75.7858
 60.1996  0.0000000E+00  0.0000000E+00