File: docs/examples/opeando_xrd/IS17_D/Data/IS17_D/17_Da_f00017.xye
# /beamlines/bl04/projects/cycle2025-II/20250340211-lsimonelli/DATA/IS17_D/17_Da_f00017.xye : mythproc.py merge -s 0.006 -l 0.5 -f /beamlines/bl04/inhouse/ff/FlatField/ff_20Nov2024rod8mm60s_17keV.raw -b True -c true -o xye /beamlines/bl04/projects/cycle2025-II/20250340211-lsimonelli/DATA/IS17_D/17_Da_00017.dat
# IsMon = [6787421, 6784067, 6783290]  IsPos = [-1.5000, -2.4884, -3.4988]
# Wave = 0.4962  CalPath /beamlines/bl04/projects/cycle2025-II/20250340211-lsimonelli/DATA/Align/Si_Pos1_25keV_f00001.cal
# Date = 2025-09-23_22:18:41 Dt = 4.8000  Bin = 0.0060  <imon> = 6784926 +/- 1793 (Min/Max) 6783290 / 6787421
# icurr 252.8260  mocoIn 1.7245E-05  mocoOut 0.8094  i15 7.09846e+06  imon 6.78493e+06  i7 4.3333  iEMpd_timer 4.8000  iEMpd_1 3.3980E-08  iEMpd_2 7.8890E-08  iEMpd_3 1.7488E-08  iEMpd_4 4.7759E-08  iEMhp_timer 4.8000  iEMhp_1 4.9398E-06  iEMhp_2 -2.3954E-08  iEMhp_3 -2.1686E-08  iEMhp_4 -1.9148E-08
#      9776
 1.7416  68284.7  261.34
 1.9396  43978  210.003
 2.1376  30418.3  174.648
 2.3356  27664.1  166.204
 2.5336  29354.5  171.809
 2.7316  24410.1  156.799
 2.9296  23146.2  152.849
 3.1276  22277.9  149.513
 3.3256  22093.4  148.585
 3.5236  24082.3  154.937
 3.7216  22071.9  149.538
 3.9196  21992.7  148.517
 4.1176  21534.9  146.728
 4.3156  22690.5  150.789
 4.5136  26071.9  160.619
 4.7116  26688.6  163.626
 4.9096  25730.8  160.115
 5.1076  25051.9  158.539
 5.3056  25587  159.974
 5.5036  25165.3  158.541
 5.7016  25375.7  159.172
 5.8996  25944  160.181
 6.0976  26626.1  163.661
 6.2956  27180.8  164.727
 6.4936  28213.1  167.031
 6.6916  28396.9  168.547
 6.8896  29597.5  171.934
 7.0876  30286.4  174.543
 7.2856  30031.2  172.98
 7.4836  31002.9  175.1
 7.6816  31393.5  176.722
 7.8796  32841.5  180.764
 8.0776  37090.5  193.103
 8.2756  37165.4  191.9
 8.4736  36715.8  190.553
 8.6716  36260.5  189.989
 8.8696  37326.9  193.21
 9.0676  36553.5  190.569
 9.2656  34247.6  185.125
 9.4636  33308  181.031
 9.6616  32661.2  180.026
 9.8596  31530.9  176.344
 10.0576  29840.3  172.211
 10.2556  28733.4  169.405
 10.4536  33719.7  183.088
 10.6516  35488.6  188.044
 10.8496  26628.4  162.316
 11.0476  26604.8  162.283
 11.2456  29671  171.943
 11.4436  25573.1  158.805
 11.6416  25181.5  157.942
 11.8396  23989.8  154.347
 12.0376  23510.9  152.458
 12.2356  25522.2  159.258
 12.4336  24382.2  155.202
 12.6316  22560.6  149.538
 12.8296  23264.7  151.514
 13.0276  23787.1  153.387
 13.2256  23390.7  152.455
 13.4236  23729  153.324
 13.6216  23505.6  152.61
 13.8196  24355.6  155.121
 14.0176  23422.2  152.411
 14.2156  22701.7  149.1
 14.4136  21378  146.025
 14.6116  21268.7  144.876
 14.8096  20477.5  142.146
 15.0076  19698.7  143.168
 15.2056  19065.9  136.782
 15.4036  18541.2  135.695
 15.6016  17972.1  132.707
 15.7996  17793.2  132.32
 15.9976  16695.9  131.034
 16.1956  16310.9  127.43
 16.3936  15983.5  125.337
 16.5916  15748.6  125.033
 16.7896  15792.4  125.26
 16.9876  15709.4  126.376
 17.1856  15597.2  124.311
 17.3836  14802  120.997
 17.5816  14646.8  120.837
 17.7796  14761.7  121.241
 17.9776  14626.2  121.48
 18.1756  16114.9  126.167
 18.3736  15944  126.027
 18.5716  14099.5  118.267
 18.7696  14100.6  117.847
 18.9676  13748.8  116.174
 19.1656  13658.3  116.344
 19.3636  13581  116.218
 19.5616  13541.3  116.212
 19.7596  13343.6  114.774
 19.9576  14020.4  117.709
 20.1556  13411.2  115.639
 20.3536  13137.5  113.83
 20.5516  12917.7  113.326
 20.7496  12595.4  111.741
 20.9476  13218.4  114.318
 21.1456  13379.8  115.354
 21.3436  12695.6  112.318
 21.5416  12524.3  111.553
 21.7396  12312  110.452
 21.9376  12516.4  111.141
 22.1356  12729.4  112.353
 22.3336  12397.5  111.031
 22.5316  12464.6  111.419
 22.7296  12264.4  109.89
 22.9276  12204.2  110.289
 23.1256  12702.5  111.995
 23.3236  12253.3  110.525
 23.5216  12244.5  110.148
 23.7196  12018.3  109.276
 23.9176  11941.4  108.471
 24.1156  11876.9  108.655
 24.3136  11631.1  108.305
 24.5116  11575.1  107.576
 24.7096  11372.5  106.45
 24.9076  11291.4  106.089
 25.1056  11112  105.711
 25.3036  10811.7  103.796
 25.5016  11010.9  104.777
 25.6996  10938.3  104.024
 25.8976  11109.7  105.268
 26.0956  10970.5  104.632
 26.2936  10743.3  103.184
 26.4916  10853.7  103.598
 26.6896  10480.1  102.094
 26.8876  10375.9  101.432
 27.0856  10419.1  101.698
 27.2836  10177.4  100.409
 27.4816  10423.3  101.536
 27.6796  10023.5  99.954
 27.8776  10362.9  101.474
 28.0756  10018.7  100.074
 28.2736  10096  100.039
 28.4716  9726.73  98.2417
 28.6696  9779.67  98.3582
 28.8676  9534.05  97.4575
 29.0656  9525.26  97.3867
 29.2636  9528.55  97.1983
 29.4616  9346.09  96.456
 29.6596  9519.97  96.919
 29.8576  9357.58  96.7674
 30.0556  9595.18  97.8627
 30.2536  9359.49  96.4515
 30.4516  9354.43  96.0709
 30.6496  9206.04  95.0334
 30.8476  9278.17  95.8455
 31.0456  9134.98  95.0556
 31.2436  9066.74  93.9801
 31.4416  8965.51  93.6341
 31.6396  9375.83  95.8006
 31.8376  9092.28  93.8951
 32.0356  8960.31  93.7657
 32.2336  8886.49  92.7706
 32.4316  8879.09  93.1457
 32.6296  8721.63  92.1579
 32.8276  8836.86  92.5272
 33.0256  8706.07  91.9267
 33.2236  8746.24  92.2777
 33.4216  8710.33  91.7923
 33.6196  8671.02  91.8693
 33.8176  8650.82  91.9236
 34.0156  8621.42  91.3805
 34.2136  8516.87  90.8626
 34.4116  8453.74  90.6857
 34.6096  8448.53  90.5347
 34.8076  8371.27  90.5264
 35.0056  8364.65  90.183
 35.2036  8456.07  90.8691
 35.4016  8415.11  90.5885
 35.5996  8246.32  89.7062
 35.7976  8204.32  89.7492
 35.9956  8359.07  90.2387
 36.1936  8189.53  89.188
 36.3916  8107.01  88.9097
 36.5896  8364.97  91.2854
 36.7876  8191.02  89.7562
 36.9856  7950.24  88.4491
 37.1836  8090.46  88.3389
 37.3816  8070.92  88.5942
 37.5796  7962.61  89.6907
 37.7776  7766.92  86.9869
 37.9756  7862.95  87.4061
 38.1736  8090.06  88.8593
 38.3716  8060.88  88.9699
 38.5696  7890.06  88.3993
 38.7676  7790.15  87.3422
 38.9656  7757.86  86.8018
 39.1636  7695.23  86.6959
 39.3616  7875.41  87.6509
 39.5596  7687.64  87.4466
 39.7576  7665.62  86.6962
 39.9556  7739.38  86.7657
 40.1536  7882.92  87.7613
 40.3516  7875.07  87.7313
 40.5496  7987.75  88.6152
 40.7476  7803.83  87.5991
 40.9456  7953.4  88.1763
 41.1436  7810.29  87.1063
 41.3416  7863.67  87.7418
 41.5396  7774.09  87.0484
 41.7376  7716.77  86.9844
 41.9356  7746.83  87.0205
 42.1336  7821.3  87.5789
 42.3316  7687.37  87.0296
 42.5296  7723.73  86.7495
 42.7276  7771.31  87.2589
 42.9256  7642.02  86.3996
 43.1236  7531.17  85.8783
 43.3216  7645.07  86.2741
 43.5196  7568.3  85.9001
 43.7176  7518.64  86.0134
 43.9156  7482.34  85.7176
 44.1136  7387.13  84.7376
 44.3116  7395.2  84.7958
 44.5096  7388.46  85.0633
 44.7076  7461.18  85.4114
 44.9056  7329.35  84.5103
 45.1036  7364.04  84.3418
 45.3016  7221.31  84.0125
 45.4996  7229.09  83.9937
 45.6976  7173.9  83.8548
 45.8956  7207.23  83.8595
 46.0936  7297.75  84.145
 46.2916  7128.6  83.3817
 46.4896  7214.61  83.9097
 46.6876  7183.58  84.4372
 46.8856  7018.84  82.753
 47.0836  7059.42  83.2323
 47.2816  6969.46  82.5768
 47.4796  6985.09  82.7705
 47.6776  6910.8  83.2486
 47.8756  6928.92  82.5554
 48.0736  6996.92  83.4165
 48.2716  6774.35  81.9061
 48.4696  6950.36  82.5511
 48.6676  6886.5  82.7454
 48.8656  6887.01  82.4766
 49.0636  6893.81  82.4726
 49.2616  6700.97  81.3529
 49.4596  6763.61  81.2844
 49.6576  6717.8  81.242
 49.8556  6742.56  81.4154
 50.0536  6617.04  81.0837
 50.2516  6636.28  81.3382
 50.4496  6620.95  80.9047
 50.6476  6663.72  80.8557
 50.8456  6574.32  80.3982
 51.0436  6545.49  80.6622
 51.2416  6566.1  80.4709
 51.4396  6321.11  79.3366
 51.6376  6357.85  79.3976
 51.8356  6389.01  79.232
 52.0336  6236.61  78.7599
 52.2316  6273.35  79.336
 52.4296  6270.43  79.007
 52.6276  6318.08  79.4373
 52.8256  6451.75  79.8315
 53.0236  6182.21  78.7634
 53.2216  6135.84  78.4834
 53.4196  6130.47  78.3932
 53.6176  6041.16  78.2832
 53.8156  6217.25  79.0916
 54.0136  6146.64  78.8164
 54.2116  6178.31  78.6819
 54.4096  6132.82  78.446
 54.6076  5990.6  77.8735
 54.8056  6040.4  77.9839
 55.0036  6058.34  78.3594
 55.2016  6004.69  77.6257
 55.3996  6053.41  77.9859
 55.5976  6052.58  78.1589
 55.7956  6111.55  78.3572
 55.9936  5976.04  77.6097
 56.1916  6100.09  78.4375
 56.3896  6067.45  78.2202
 56.5876  6011.25  78.3943
 56.7856  5970.63  77.6245
 56.9836  5904.49  76.9797
 57.1816  5952  77.6579
 57.3796  6019.84  77.9073
 57.5776  5977.56  77.5596
 57.7756  5897.09  77.6634
 57.9736  5971.68  77.8308
 58.1716  6064.51  78.6731
 58.3696  5923.47  77.515
 58.5676  6021.06  77.6293
 58.7656  6002.48  78.1775
 58.9636  6101.15  78.8315
 59.1616  5948.87  77.9786
 59.3596  6049.86  77.9119
 59.5576  6061.62  78.0445
 59.7556  5891.64  77.3556
 59.9536  6111.32  78.6828
 60.1516  6050.38  79.1392
 60.1996  0.0000000E+00  0.0000000E+00