File: docs/examples/opeando_xrd/IS17_D/Data/IS17_D/17_Db_f00138.xye
# /beamlines/bl04/projects/cycle2025-II/20250340211-lsimonelli/DATA/IS17_D/17_Db_f00138.xye : mythproc.py merge -s 0.006 -l 0.5 -f /beamlines/bl04/inhouse/ff/FlatField/ff_20Nov2024rod8mm60s_17keV.raw -b True -c true -o xye /beamlines/bl04/projects/cycle2025-II/20250340211-lsimonelli/DATA/IS17_D/17_Db_00138.dat
# IsMon = [6753628, 6750245, 6751948]  IsPos = [-1.4999, -2.4884, -3.4988]
# Wave = 0.4962  CalPath /beamlines/bl04/projects/cycle2025-II/20250340211-lsimonelli/DATA/Align/Si_Pos1_25keV_f00001.cal
# Date = 2025-09-25_08:11:14 Dt = 4.8000  Bin = 0.0060  <imon> = 6751940 +/- 1381 (Min/Max) 6750245 / 6753628
# icurr 249.9647  mocoIn 1.7047E-05  mocoOut 0.7996  i15 7.07516e+06  imon 6.75194e+06  i7 3.0000  iEMpd_timer 4.8000  iEMpd_1 3.6607E-08  iEMpd_2 7.8817E-08  iEMpd_3 1.7796E-08  iEMpd_4 4.7981E-08  iEMhp_timer 4.8000  iEMhp_1 4.8831E-06  iEMhp_2 -2.5839E-08  iEMhp_3 -2.5296E-08  iEMhp_4 -2.1237E-08
#      9776
 1.7416  68975.2  262.674
 1.9396  47712.4  218.749
 2.1376  35042.4  187.464
 2.3356  31480.6  177.308
 2.5336  29769.4  173.029
 2.7316  26644.9  163.835
 2.9296  25572.7  160.663
 3.1276  24974.6  158.312
 3.3256  24324.6  155.91
 3.5236  25849.3  160.522
 3.7216  23684.4  154.895
 3.9196  23600.1  153.821
 4.1176  23223.9  152.372
 4.3156  24151.8  155.562
 4.5136  26971.2  163.368
 4.7116  27664.6  166.591
 4.9096  26796.3  163.392
 5.1076  26585.7  163.315
 5.3056  26524.9  162.855
 5.5036  26452.8  162.554
 5.7016  26939.9  163.996
 5.8996  27560.6  165.11
 6.0976  28263.8  168.606
 6.2956  28400.6  168.375
 6.4936  29145  169.761
 6.6916  29406.3  171.494
 6.8896  30393.3  174.202
 7.0876  31213.8  177.287
 7.2856  31184.8  176.251
 7.4836  31892.9  177.585
 7.6816  32485.1  179.741
 7.8796  33324.2  182.069
 8.0776  36168.1  190.685
 8.2756  37085.8  191.691
 8.4736  37285  192.023
 8.6716  36652.3  191.014
 8.8696  37746.4  194.318
 9.0676  37225.4  192.287
 9.2656  35426.7  188.278
 9.4636  34628.3  184.613
 9.6616  34020.6  183.716
 9.8596  33353.7  181.363
 10.0576  31296.4  176.352
 10.2556  30388.1  174.219
 10.4536  31734.1  177.62
 10.6516  32796.9  180.769
 10.8496  27725.7  165.636
 11.0476  27534.5  165.086
 11.2456  28408.9  168.255
 11.4436  27215.4  163.828
 11.6416  26160.3  160.956
 11.8396  24869.6  157.137
 12.0376  24330.3  155.078
 12.2356  24762.4  156.866
 12.4336  24270.9  154.845
 12.6316  23829.3  153.689
 12.8296  24095.2  154.149
 13.0276  24218.3  154.769
 13.2256  24198.4  155.062
 13.4236  24216.5  154.894
 13.6216  24569.7  156.011
 13.8196  27202.8  163.673
 14.0176  23746.6  153.461
 14.2156  23409.1  151.391
 14.4136  22220.5  148.882
 14.6116  21689.2  146.29
 14.8096  21120.8  144.338
 15.0076  20222.8  145.124
 15.2056  19013.1  136.587
 15.4036  18308  134.854
 15.6016  18004.9  132.82
 15.7996  17648.9  131.774
 15.9976  17120.8  132.639
 16.1956  16824.8  129.389
 16.3936  16659  127.939
 16.5916  16409.7  127.608
 16.7896  16561.1  128.258
 16.9876  16282.9  128.635
 17.1856  15828.7  125.224
 17.3836  15464.6  123.691
 17.5816  15228.4  123.22
 17.7796  15193.3  123.009
 17.9776  14909.1  122.628
 18.1756  15415.7  123.42
 18.3736  15431.7  123.974
 18.5716  14558.2  120.175
 18.7696  14623.5  119.989
 18.9676  14324.3  118.556
 19.1656  13965.3  117.658
 19.3636  13875.1  117.473
 19.5616  13920.5  117.831
 19.7596  14175  118.294
 19.9576  14596.5  120.093
 20.1556  13720.6  116.95
 20.3536  13526.8  115.513
 20.5516  13223  114.651
 20.7496  13024.1  113.724
 20.9476  13275.7  114.564
 21.1456  13215.2  114.638
 21.3436  12868.7  113.068
 21.5416  12729.5  112.474
 21.7396  12576.3  111.635
 21.9376  12643.6  111.71
 22.1356  12865.5  112.809
 22.3336  12422.8  111.144
 22.5316  12404.8  111.153
 22.7296  12392.3  110.467
 22.9276  12162.4  110.097
 23.1256  12619.2  111.621
 23.3236  12566.7  111.945
 23.5216  12481.7  111.201
 23.7196  12223.9  110.001
 23.9176  12377.1  110.44
 24.1156  12055.2  109.441
 24.3136  12124.8  110.578
 24.5116  11988.7  109.484
 24.7096  11801.9  108.441
 24.9076  11710.3  108.042
 25.1056  11244.4  106.341
 25.3036  11023.6  104.807
 25.5016  11140.1  105.39
 25.6996  11146.3  105.005
 25.8976  11187.4  105.627
 26.0956  11052.7  104.996
 26.2936  11039  104.603
 26.4916  11156.3  105.011
 26.6896  10826.8  103.755
 26.8876  10724.4  103.115
 27.0856  10538.3  102.284
 27.2836  10307  101.037
 27.4816  10397.5  101.426
 27.6796  10224.7  100.937
 27.8776  10628.4  102.764
 28.0756  10124  100.591
 28.2736  10163.4  100.368
 28.4716  9933.99  99.2786
 28.6696  9981.64  99.3631
 28.8676  9839.91  99.0064
 29.0656  9800.48  98.7831
 29.2636  9738.53  98.2593
 29.4616  9241.96  95.9156
 29.6596  9582.9  97.2357
 29.8576  9195  95.9208
 30.0556  9252.62  96.1016
 30.2536  9466.75  97.0002
 30.4516  9587.39  97.2391
 30.6496  9553.2  96.8047
 30.8476  9492.11  96.9404
 31.0456  9575.45  97.3151
 31.2436  9581.05  96.5949
 31.4416  9338.58  95.5603
 31.6396  9552.6  96.705
 31.8376  9357.32  95.2277
 32.0356  9286.07  95.4407
 32.2336  9239.87  94.5991
 32.4316  9015.61  93.8552
 32.6296  8904.54  93.1092
 32.8276  9075.7  93.7901
 33.0256  8930.1  93.097
 33.2236  8880.7  92.9778
 33.4216  8929.66  92.9242
 33.6196  8830.56  92.6999
 33.8176  8790.5  92.6533
 34.0156  8763.35  92.1373
 34.2136  8676.93  91.7067
 34.4116  8524.91  91.0651
 34.6096  8631.29  91.5113
 34.8076  8519.77  91.331
 35.0056  8574.37  91.3011
 35.2036  8658.37  91.9658
 35.4016  8413.29  90.5728
 35.5996  8394.75  90.5084
 35.7976  8423.43  90.924
 35.9956  8620.07  91.6287
 36.1936  8467.87  90.685
 36.3916  8282.55  89.8693
 36.5896  8453.59  91.7872
 36.7876  7986.06  88.6197
 36.9856  7869.89  88.0024
 37.1836  8078.79  88.2718
 37.3816  8115.96  88.8351
 37.5796  8056.12  90.2134
 37.7776  8087.36  88.7566
 37.9756  8150.06  88.9838
 38.1736  8236.63  89.6574
 38.3716  8056.52  88.9369
 38.5696  7937.94  88.6607
 38.7676  7887.15  87.8837
 38.9656  8024.55  88.2789
 39.1636  7947.09  88.1177
 39.3616  7923.39  87.9294
 39.5596  7772.11  87.9161
 39.7576  7690.22  86.8454
 39.9556  7940.74  87.8847
 40.1536  8045.18  88.6553
 40.3516  7955.01  88.1763
 40.5496  7907.24  88.1712
 40.7476  8032.1  88.8558
 40.9456  8010.87  88.5005
 41.1436  8067.07  88.526
 41.3416  7936.14  88.1442
 41.5396  7961.25  88.0922
 41.7376  7884.35  87.9252
 41.9356  7883.01  87.7741
 42.1336  8116.16  89.1973
 42.3316  7898.5  88.2085
 42.5296  7817.12  87.2722
 42.7276  7931.68  88.1499
 42.9256  7934.35  88.0368
 43.1236  7753.33  87.1333
 43.3216  7895.23  87.6637
 43.5196  7754.77  86.9463
 43.7176  7817.36  87.7006
 43.9156  7614.84  86.4787
 44.1136  7535.03  85.5794
 44.3116  7565.52  85.7634
 44.5096  7564.88  86.0717
 44.7076  7450.91  85.3507
 44.9056  7691.35  86.5701
 45.1036  7508.33  85.1547
 45.3016  7628.83  86.345
 45.4996  7602.68  86.1306
 45.6976  7524.73  85.873
 45.8956  7679.7  86.5691
 46.0936  7690.57  86.6262
 46.2916  7633.26  86.2879
 46.4896  7578.59  86.0102
 46.6876  7471.51  86.1148
 46.8856  7400.41  84.9561
 47.0836  7448.06  85.4819
 47.2816  7428.7  85.2611
 47.4796  7415.6  85.2898
 47.6776  7362.55  85.9363
 47.8756  7409.63  85.3687
 48.0736  7469.79  86.1828
 48.2716  7289.32  84.9548
 48.4696  7482.72  85.6571
 48.6676  7426.79  85.9407
 48.8656  7459.51  85.8479
 49.0636  7526.35  86.1762
 49.2616  7248.58  84.6139
 49.4596  7401.77  85.0454
 49.6576  7315.82  84.7903
 49.8556  7320.14  84.8312
 50.0536  7312.61  85.2426
 50.2516  7334.79  85.4982
 50.4496  7360.02  85.3045
 50.6476  7292.55  84.5819
 50.8456  7173.56  83.9776
 51.0436  7070.91  83.8347
 51.2416  7185.07  84.1736
 51.4396  7002.76  83.5072
 51.6376  7018.5  83.4202
 51.8356  7027.74  83.0789
 52.0336  7009.86  83.4872
 52.2316  7164.55  84.7736
 52.4296  7020.98  83.6201
 52.6276  6939.57  83.2462
 52.8256  7000.87  83.1636
 53.0236  7038.69  84.0361
 53.2216  7119.83  84.5676
 53.4196  6902.21  83.1711
 53.6176  7054.9  84.5947
 53.8156  6843.81  82.9851
 54.0136  6696.59  82.2585
 54.2116  6802.25  82.5295
 54.4096  6642.46  81.6373
 54.6076  6696.97  82.3004
 54.8056  6494.23  80.8301
 55.0036  6475.12  81.1252
 55.2016  6700.14  82.0339
 55.3996  6326.2  79.7016
 55.5976  6430.41  80.5447
 55.7956  6481.99  80.6751
 55.9936  6581.04  81.4064
 56.1916  6392.73  80.2788
 56.3896  6341.96  79.948
 56.5876  6320.45  80.376
 56.7856  6318.79  79.8557
 56.9836  6401.35  80.1352
 57.1816  6484.15  81.0157
 57.3796  6267.85  79.488
 57.5776  6280.84  79.4533
 57.7756  6226.18  79.7789
 57.9736  6155.39  78.9708
 58.1716  6193  79.5005
 58.3696  5936.15  77.6005
 58.5676  6090.36  78.0644
 58.7656  6081.58  78.6908
 58.9636  6040.21  78.4484
 59.1616  5859.41  77.4004
 59.3596  6009.69  77.6431
 59.5576  5968.57  77.4338
 59.7556  5908.92  77.4596
 59.9536  5999.25  77.9486
 60.1516  5814.11  77.5692
 60.1996  0.0000000E+00  0.0000000E+00