File: docs/examples/opeando_xrd/IS17_D/Data/IS17_D/17_Db_f00132.xye
# /beamlines/bl04/projects/cycle2025-II/20250340211-lsimonelli/DATA/IS17_D/17_Db_f00132.xye : mythproc.py merge -s 0.006 -l 0.5 -f /beamlines/bl04/inhouse/ff/FlatField/ff_20Nov2024rod8mm60s_17keV.raw -b True -c true -o xye /beamlines/bl04/projects/cycle2025-II/20250340211-lsimonelli/DATA/IS17_D/17_Db_00132.dat
# IsMon = [6753451, 6756241, 6757076]  IsPos = [-1.5000, -2.4884, -3.4988]
# Wave = 0.4962  CalPath /beamlines/bl04/projects/cycle2025-II/20250340211-lsimonelli/DATA/Align/Si_Pos1_25keV_f00001.cal
# Date = 2025-09-25_06:29:23 Dt = 4.8000  Bin = 0.0060  <imon> = 6755589 +/- 1550 (Min/Max) 6753451 / 6757076
# icurr 250.3652  mocoIn 1.7076E-05  mocoOut 0.8013  i15 7.07903e+06  imon 6.75559e+06  i7 5.3333  iEMpd_timer 4.8000  iEMpd_1 3.4912E-08  iEMpd_2 7.9621E-08  iEMpd_3 1.7575E-08  iEMpd_4 4.8855E-08  iEMhp_timer 4.8000  iEMhp_1 4.8908E-06  iEMhp_2 -2.6052E-08  iEMhp_3 -2.3858E-08  iEMhp_4 -2.0560E-08
#      9776
 1.7416  69484.1  263.716
 1.9396  48744.3  221.16
 2.1376  35611.4  189.033
 2.3356  31610.6  177.724
 2.5336  29403.4  172.011
 2.7316  26894.6  164.61
 2.9296  25689.3  161.038
 3.1276  25268.1  159.256
 3.3256  24464.2  156.355
 3.5236  26023.3  161.058
 3.7216  23991  155.893
 3.9196  23572.1  153.738
 4.1176  23466.6  153.169
 4.3156  24309.8  156.068
 4.5136  26952.4  163.294
 4.7116  27735.7  166.802
 4.9096  26894.3  163.676
 5.1076  26704.6  163.691
 5.3056  26859  163.873
 5.5036  26641.1  163.123
 5.7016  27224.2  164.865
 5.8996  27640.5  165.348
 6.0976  28444.3  169.142
 6.2956  28686.9  169.215
 6.4936  29320.3  170.266
 6.6916  29783.2  172.6
 6.8896  30569.3  174.7
 7.0876  31768.9  178.771
 7.2856  31444.4  176.985
 7.4836  31969.5  177.807
 7.6816  32661.5  180.228
 7.8796  33606.9  182.816
 8.0776  35521.8  188.946
 8.2756  36942.5  191.297
 8.4736  37416.2  192.332
 8.6716  36957.6  191.778
 8.8696  37842.9  194.582
 9.0676  37127.4  192.053
 9.2656  35881.7  189.503
 9.4636  35027.6  185.679
 9.6616  33966.5  183.577
 9.8596  33528.5  181.843
 10.0576  31628.6  177.289
 10.2556  30533.8  174.638
 10.4536  30865.9  175.181
 10.6516  30431.3  174.156
 10.8496  27908.4  166.188
 11.0476  27508  165.009
 11.2456  27443.3  165.357
 11.4436  27420.9  164.445
 11.6416  26195.3  161.072
 11.8396  25046.2  157.702
 12.0376  24427.9  155.389
 12.2356  24323.8  155.472
 12.4336  24282.3  154.886
 12.6316  24075.9  154.491
 12.8296  24224.1  154.568
 13.0276  24436.8  155.458
 13.2256  24240  155.199
 13.4236  24382.8  155.425
 13.6216  24845.2  156.892
 13.8196  26912.9  162.713
 14.0176  23911.9  153.988
 14.2156  23411.2  151.393
 14.4136  22322.4  149.221
 14.6116  22038.9  147.467
 14.8096  21059.2  144.125
 15.0076  20341  145.549
 15.2056  19284.8  137.535
 15.4036  18589.3  135.862
 15.6016  18032.7  132.908
 15.7996  17603.1  131.58
 15.9976  17342.4  133.503
 16.1956  17132.8  130.582
 16.3936  16521.8  127.414
 16.5916  16608.6  128.402
 16.7896  16507.3  128.073
 16.9876  16326.8  128.819
 17.1856  16036.4  126.052
 17.3836  15871.2  125.314
 17.5816  15329.7  123.638
 17.7796  15344.6  123.628
 17.9776  15016.5  123.074
 18.1756  15197.5  122.546
 18.3736  14995.3  122.217
 18.5716  14574.7  120.242
 18.7696  14678.8  120.218
 18.9676  14395.8  118.872
 19.1656  14110.4  118.263
 19.3636  14079.8  118.331
 19.5616  14117.1  118.657
 19.7596  14420.6  119.324
 19.9576  14865.7  121.197
 20.1556  13835.4  117.433
 20.3536  13567.7  115.683
 20.5516  13421  115.504
 20.7496  13311.4  114.88
 20.9476  13315.6  114.75
 21.1456  13118.9  114.215
 21.3436  12778.8  112.672
 21.5416  12895.2  113.204
 21.7396  12728.9  112.309
 21.9376  12590.4  111.472
 22.1356  12828.4  112.794
 22.3336  12388.7  110.975
 22.5316  12537.5  111.728
 22.7296  12479.9  110.839
 22.9276  12337.5  110.871
 23.1256  12571.2  111.392
 23.3236  12642.1  112.288
 23.5216  12619.2  111.822
 23.7196  12585.6  111.848
 23.9176  12503.9  111.012
 24.1156  12345.2  110.771
 24.3136  11871.2  109.424
 24.5116  12026.7  109.661
 24.7096  11774.6  108.311
 24.9076  11548  107.3
 25.1056  11190.4  106.078
 25.3036  10977.2  104.572
 25.5016  11096.4  105.181
 25.6996  11114.7  104.857
 25.8976  11127.1  105.34
 26.0956  10940.6  104.467
 26.2936  11000.1  104.414
 26.4916  11113.2  104.806
 26.6896  10832  103.778
 26.8876  10816.3  103.559
 27.0856  10525.6  102.214
 27.2836  10437.5  101.683
 27.4816  10455.4  101.707
 27.6796  10270.4  101.159
 27.8776  10502.8  102.157
 28.0756  10171.3  100.822
 28.2736  10204.1  100.568
 28.4716  10086.1  100.04
 28.6696  9950.34  99.2079
 28.8676  9837.06  98.9952
 29.0656  9715.96  98.3539
 29.2636  9795.4  98.5517
 29.4616  9550.53  97.4859
 29.6596  9409.88  96.3408
 29.8576  9345.97  96.6894
 30.0556  9345.57  96.557
 30.2536  9435.23  96.8246
 30.4516  9601.19  97.3225
 30.6496  9540.34  96.7436
 30.8476  9422.43  96.5792
 31.0456  9424.69  96.5641
 31.2436  9519.14  96.3103
 31.4416  9342.55  95.5935
 31.6396  9595.05  96.9236
 31.8376  9342.92  95.1459
 32.0356  9265.99  95.3364
 32.2336  9294.58  94.8937
 32.4316  8935.03  93.4295
 32.6296  8816.44  92.6494
 32.8276  9008.89  93.439
 33.0256  8914.41  93.0172
 33.2236  8997.35  93.5946
 33.4216  8868.91  92.6108
 33.6196  8881.06  92.961
 33.8176  8891.02  93.1884
 34.0156  8733.93  91.9836
 34.2136  8890.38  92.8299
 34.4116  8637.2  91.6629
 34.6096  8685.95  91.8024
 34.8076  8565.07  91.5731
 35.0056  8686.23  91.893
 35.2036  8750.23  92.4549
 35.4016  8400.88  90.5011
 35.5996  8564.8  91.4061
 35.7976  8420.98  90.9219
 35.9956  8577.33  91.4068
 36.1936  8451.42  90.5852
 36.3916  8348.13  90.2234
 36.5896  8408.56  91.5449
 36.7876  8192.22  89.747
 36.9856  8151.29  89.5451
 37.1836  8163.73  88.7227
 37.3816  8098.69  88.7292
 37.5796  8174.97  90.886
 37.7776  8269.47  89.767
 37.9756  8185.46  89.1912
 38.1736  8098.98  88.9055
 38.3716  8036.39  88.8218
 38.5696  7954.6  88.7579
 38.7676  7979.53  88.4024
 38.9656  8030.18  88.3137
 39.1636  8080.77  88.8708
 39.3616  8018  88.4482
 39.5596  7788.93  88.0103
 39.7576  7900.47  88.0264
 39.9556  7954.4  87.9639
 40.1536  8117.07  89.0559
 40.3516  8073.66  88.8311
 40.5496  8021.28  88.7989
 40.7476  8019.93  88.7878
 40.9456  8090.48  88.9391
 41.1436  8136.55  88.9142
 41.3416  7895.39  87.9136
 41.5396  7929.31  87.9152
 41.7376  7987.06  88.4816
 41.9356  7937.73  88.0753
 42.1336  8008.31  88.6063
 42.3316  7852.73  87.948
 42.5296  7889.27  87.6709
 42.7276  7948.53  88.2417
 42.9256  7858.27  87.615
 43.1236  7801.33  87.398
 43.3216  7852.46  87.4227
 43.5196  7772.83  87.0512
 43.7176  7762.51  87.3917
 43.9156  7436.26  85.4478
 44.1136  7527.24  85.523
 44.3116  7536.73  85.5904
 44.5096  7621.39  86.3806
 44.7076  7514.61  85.701
 44.9056  7739.55  86.8498
 45.1036  7631.68  85.8626
 45.3016  7722.13  86.874
 45.4996  7614.32  86.204
 45.6976  7447.56  85.4313
 45.8956  7578.75  86.0027
 46.0936  7599.4  85.8722
 46.2916  7706.92  86.7068
 46.4896  7582.57  86.0323
 46.6876  7524.81  86.4284
 46.8856  7466  85.3439
 47.0836  7444.48  85.4759
 47.2816  7433.14  85.2818
 47.4796  7588.21  86.2771
 47.6776  7397.62  86.1452
 47.8756  7478.58  85.7735
 48.0736  7433.39  85.977
 48.2716  7340.89  85.2514
 48.4696  7595.88  86.3043
 48.6676  7445.79  86.0474
 48.8656  7366.67  85.3035
 49.0636  7430.36  85.6265
 49.2616  7264.79  84.7005
 49.4596  7386.42  84.953
 49.6576  7404.7  85.3
 49.8556  7307.4  84.756
 50.0536  7352.64  85.4675
 50.2516  7318.08  85.3992
 50.4496  7267.58  84.761
 50.6476  7233.78  84.2374
 50.8456  7357.18  85.0503
 51.0436  7127.68  84.159
 51.2416  7079.95  83.5443
 51.4396  6904.04  82.9045
 51.6376  7089.33  83.8264
 51.8356  7082.46  83.4035
 52.0336  6979.04  83.3112
 52.2316  6952.25  83.5168
 52.4296  6917.19  83.0025
 52.6276  6968.31  83.417
 52.8256  7097.72  83.7419
 53.0236  7126.22  84.565
 53.2216  7041.96  84.0761
 53.4196  7156.7  84.6918
 53.6176  6909.35  83.7212
 53.8156  6951.57  83.6329
 54.0136  6669.78  82.0929
 54.2116  6812.01  82.5972
 54.4096  6669.76  81.8068
 54.6076  6664.05  82.1126
 54.8056  6559.51  81.234
 55.0036  6755.23  82.726
 55.2016  6556.13  81.0714
 55.3996  6458.21  80.5183
 55.5976  6506.83  81.0333
 55.7956  6493.18  80.7477
 55.9936  6587.12  81.4602
 56.1916  6467.54  80.7489
 56.3896  6314.88  79.7605
 56.5876  6413.5  80.9421
 56.7856  6235.29  79.3285
 56.9836  6426.82  80.3064
 57.1816  6473.75  80.9684
 57.3796  6251.22  79.3667
 57.5776  6252.23  79.2741
 57.7756  6280.61  80.1354
 57.9736  6177.65  79.1412
 58.1716  6154.73  79.2506
 58.3696  6004.35  78.0318
 58.5676  6081.83  77.9954
 58.7656  6028.36  78.3328
 58.9636  6031.85  78.3786
 59.1616  6056.15  78.6761
 59.3596  6017.76  77.6874
 59.5576  6023.99  77.7839
 59.7556  5752.06  76.4162
 59.9536  6085.79  78.5002
 60.1516  6004.12  78.8179
 60.1996  0.0000000E+00  0.0000000E+00