File: docs/examples/opeando_xrd/IS17_D/Data/IS17_D/17_Db_f00133.xye
# /beamlines/bl04/projects/cycle2025-II/20250340211-lsimonelli/DATA/IS17_D/17_Db_f00133.xye : mythproc.py merge -s 0.006 -l 0.5 -f /beamlines/bl04/inhouse/ff/FlatField/ff_20Nov2024rod8mm60s_17keV.raw -b True -c true -o xye /beamlines/bl04/projects/cycle2025-II/20250340211-lsimonelli/DATA/IS17_D/17_Db_00133.dat
# IsMon = [6767229, 6766155, 6765211]  IsPos = [-1.5000, -2.4884, -3.4988]
# Wave = 0.4962  CalPath /beamlines/bl04/projects/cycle2025-II/20250340211-lsimonelli/DATA/Align/Si_Pos1_25keV_f00001.cal
# Date = 2025-09-25_06:45:59 Dt = 4.8000  Bin = 0.0060  <imon> = 6766198 +/- 824 (Min/Max) 6765211 / 6767229
# icurr 251.1553  mocoIn 1.7128E-05  mocoOut 0.8037  i15 7.08851e+06  imon 6.7662e+06  i7 5.0000  iEMpd_timer 4.8000  iEMpd_1 3.5496E-08  iEMpd_2 8.0270E-08  iEMpd_3 1.7288E-08  iEMpd_4 4.9190E-08  iEMhp_timer 4.8000  iEMhp_1 4.9057E-06  iEMhp_2 -2.6549E-08  iEMhp_3 -2.4068E-08  iEMhp_4 -2.0798E-08
#      9776
 1.7416  70035.1  264.697
 1.9396  48386.5  220.299
 2.1376  35260.4  188.056
 2.3356  31747.9  178.068
 2.5336  29994.9  173.692
 2.7316  26973.8  164.837
 2.9296  25708.9  161.078
 3.1276  25147.5  158.854
 3.3256  24543.9  156.601
 3.5236  26061.3  161.171
 3.7216  23944  155.746
 3.9196  23544.6  153.627
 4.1176  23492.5  153.253
 4.3156  24417.2  156.418
 4.5136  26904.9  163.156
 4.7116  27928.3  167.376
 4.9096  26982.4  163.949
 5.1076  26704.2  163.681
 5.3056  26814.1  163.747
 5.5036  26620  163.063
 5.7016  27180.6  164.733
 5.8996  27650.3  165.379
 6.0976  28565  169.502
 6.2956  28578.8  168.9
 6.4936  29137.4  169.729
 6.6916  29784  172.597
 6.8896  30584.7  174.757
 7.0876  31775.7  178.78
 7.2856  31418.3  176.912
 7.4836  31834.8  177.428
 7.6816  32775.4  180.536
 7.8796  33662.2  182.989
 8.0776  35479.2  188.854
 8.2756  37124.2  191.797
 8.4736  37783.4  193.297
 8.6716  36788.3  191.353
 8.8696  38166  195.407
 9.0676  37252.8  192.363
 9.2656  35719.1  189.072
 9.4636  34964.2  185.518
 9.6616  34096.2  183.933
 9.8596  33613.8  182.044
 10.0576  31702  177.474
 10.2556  30869.4  175.589
 10.4536  30898.3  175.263
 10.6516  31524  177.223
 10.8496  28106.4  166.774
 11.0476  27308.7  164.405
 11.2456  27771.4  166.351
 11.4436  27782.9  165.529
 11.6416  26172.9  160.997
 11.8396  25180.2  158.121
 12.0376  24409.5  155.327
 12.2356  24555  156.209
 12.4336  24351.1  155.1
 12.6316  24297.2  155.194
 12.8296  24385.6  155.094
 13.0276  24604.6  156
 13.2256  24480.2  155.957
 13.4236  24577.4  156.043
 13.6216  24928  157.151
 13.8196  27083.7  163.253
 14.0176  23782.8  153.579
 14.2156  23372.1  151.28
 14.4136  22406.3  149.501
 14.6116  21770.8  146.57
 14.8096  21121.2  144.343
 15.0076  20443.1  145.911
 15.2056  19289  137.572
 15.4036  18538.2  135.691
 15.6016  18149.2  133.351
 15.7996  17719  132.037
 15.9976  17408.6  133.79
 16.1956  16954.9  129.89
 16.3936  16875.3  128.776
 16.5916  16511.3  128.018
 16.7896  16745  128.982
 16.9876  16341.3  128.872
 17.1856  16130.5  126.419
 17.3836  15566.3  124.093
 17.5816  15431.5  124.034
 17.7796  15259.7  123.275
 17.9776  15088.4  123.371
 18.1756  15470.6  123.638
 18.3736  15097.7  122.627
 18.5716  14557.7  120.166
 18.7696  14528.8  119.604
 18.9676  14404.5  118.9
 19.1656  14219  118.723
 19.3636  14022.9  118.092
 19.5616  13974.4  118.063
 19.7596  14426.7  119.338
 19.9576  14867  121.206
 20.1556  13803.8  117.308
 20.3536  13745.7  116.445
 20.5516  13361.6  115.245
 20.7496  13169.6  114.262
 20.9476  13229.5  114.362
 21.1456  13217.7  114.646
 21.3436  12939.1  113.384
 21.5416  13018.1  113.741
 21.7396  12795.5  112.605
 21.9376  12670.6  111.83
 22.1356  12887.6  113.054
 22.3336  12375.5  110.926
 22.5316  12511.7  111.628
 22.7296  12455.4  110.747
 22.9276  12343.4  110.91
 23.1256  12565.2  111.386
 23.3236  12636.7  112.262
 23.5216  12628.7  111.864
 23.7196  12621.1  111.994
 23.9176  12485.2  110.926
 24.1156  12285.1  110.497
 24.3136  12035.7  110.166
 24.5116  12056  109.78
 24.7096  11900.9  108.875
 24.9076  11578  107.432
 25.1056  11371.8  106.938
 25.3036  11135.7  105.336
 25.5016  11157  105.469
 25.6996  11196.5  105.24
 25.8976  11129.6  105.346
 26.0956  11023.3  104.88
 26.2936  10993  104.385
 26.4916  11159.8  105.019
 26.6896  10854.6  103.891
 26.8876  10778.5  103.38
 27.0856  10694.5  103.04
 27.2836  10587.6  102.409
 27.4816  10439.5  101.623
 27.6796  10199.3  100.806
 27.8776  10644.3  102.845
 28.0756  10142.1  100.68
 28.2736  10151.2  100.301
 28.4716  9979.33  99.5067
 28.6696  9990.12  99.4049
 28.8676  9944.98  99.5296
 29.0656  9732.17  98.4379
 29.2636  9806.93  98.6064
 29.4616  9514.27  97.3161
 29.6596  9566.23  97.1478
 29.8576  9306.3  96.4968
 30.0556  9504.56  97.3959
 30.2536  9350.92  96.3934
 30.4516  9609.51  97.3446
 30.6496  9703.04  97.5554
 30.8476  9495.21  96.9556
 31.0456  9513.17  97.0108
 31.2436  9536.92  96.3899
 31.4416  9344.09  95.5855
 31.6396  9445.12  96.1465
 31.8376  9476.83  95.8148
 32.0356  9383.4  95.939
 32.2336  9355.18  95.1863
 32.4316  8992.72  93.7321
 32.6296  9033.69  93.7811
 32.8276  8918.95  92.9774
 33.0256  8968.89  93.2934
 33.2236  9092.57  94.0803
 33.4216  8960.33  93.0865
 33.6196  8880.28  92.9643
 33.8176  8820.44  92.8122
 34.0156  8801.31  92.3429
 34.2136  8836.35  92.5438
 34.4116  8636.32  91.6646
 34.6096  8721.89  91.9896
 34.8076  8555.39  91.5253
 35.0056  8586.62  91.3571
 35.2036  8709.45  92.2357
 35.4016  8450.15  90.7684
 35.5996  8511.15  91.1285
 35.7976  8480.47  91.2321
 35.9956  8561.53  91.3166
 36.1936  8508.65  90.888
 36.3916  8433.91  90.6852
 36.5896  8355.91  91.2522
 36.7876  8076.77  89.1159
 36.9856  7987.43  88.6462
 37.1836  8042.49  88.0705
 37.3816  8131.97  88.9236
 37.5796  8188.45  90.9596
 37.7776  8236.19  89.5732
 37.9756  8356.59  90.1131
 38.1736  8335.59  90.1963
 38.3716  8207.1  89.7729
 38.5696  8051.84  89.2939
 38.7676  8043.42  88.7529
 38.9656  8061.02  88.4783
 39.1636  8105.47  88.9894
 39.3616  7945.48  88.0481
 39.5596  7880.29  88.5179
 39.7576  7952.3  88.3116
 39.9556  7904.1  87.6838
 40.1536  8118.38  89.0655
 40.3516  8103.39  88.9917
 40.5496  7951.01  88.4056
 40.7476  7988.48  88.6134
 40.9456  8129.47  89.1505
 41.1436  8044.79  88.4041
 41.3416  7925.25  88.0835
 41.5396  7928.08  87.9071
 41.7376  7892.99  87.9704
 41.9356  7916.1  87.9586
 42.1336  7939.11  88.2178
 42.3316  7862.72  88.0077
 42.5296  7923.02  87.8565
 42.7276  7943.5  88.218
 42.9256  7874.1  87.7003
 43.1236  7880.82  87.8401
 43.3216  7973.18  88.0991
 43.5196  7791.29  87.1483
 43.7176  7777.86  87.4808
 43.9156  7656.44  86.7111
 44.1136  7623.95  86.0798
 44.3116  7551.12  85.6816
 44.5096  7506.66  85.7369
 44.7076  7577.53  86.0701
 44.9056  7685.38  86.5435
 45.1036  7670.93  86.0709
 45.3016  7595.87  86.1648
 45.4996  7711.64  86.7569
 45.6976  7480.09  85.6248
 45.8956  7544.75  85.802
 46.0936  7710.45  86.4794
 46.2916  7591.17  86.0453
 46.4896  7691.77  86.6483
 46.6876  7385.88  85.6224
 46.8856  7528.37  85.6921
 47.0836  7513.25  85.8632
 47.2816  7441.51  85.3329
 47.4796  7395.94  85.1816
 47.6776  7325.64  85.7263
 47.8756  7499.23  85.8888
 48.0736  7445.73  86.046
 48.2716  7313.29  85.0895
 48.4696  7480.64  85.6424
 48.6676  7511.21  86.4235
 48.8656  7431.59  85.6726
 49.0636  7530.75  86.1977
 49.2616  7328.5  85.0776
 49.4596  7340.55  84.6903
 49.6576  7335.77  84.892
 49.8556  7350.41  85.006
 50.0536  7399.91  85.7435
 50.2516  7331.81  85.4866
 50.4496  7400.18  85.533
 50.6476  7303.87  84.6484
 50.8456  7251.92  84.4252
 51.0436  7054.63  83.7344
 51.2416  7049.56  83.3743
 51.4396  6892.86  82.846
 51.6376  7056.79  83.6421
 51.8356  7096.86  83.49
 52.0336  7166.92  84.4208
 52.2316  7000.29  83.7975
 52.4296  7014.94  83.5895
 52.6276  6999.85  83.6122
 52.8256  7033.67  83.3635
 53.0236  7115.28  84.4888
 53.2216  6942.3  83.4747
 53.4196  7003.9  83.7714
 53.6176  6924.41  83.8061
 53.8156  7028.68  84.0878
 54.0136  6735.67  82.4994
 54.2116  6805.99  82.5585
 54.4096  6589.15  81.3008
 54.6076  6627.8  81.8935
 54.8056  6647.25  81.78
 55.0036  6666.91  82.1685
 55.2016  6690.55  81.8988
 55.3996  6406.48  80.2043
 55.5976  6543.63  81.2381
 55.7956  6554.71  81.1169
 55.9936  6639.22  81.7845
 56.1916  6431.42  80.5228
 56.3896  6306.41  79.7197
 56.5876  6345.94  80.5175
 56.7856  6370.72  80.1828
 56.9836  6452.04  80.4558
 57.1816  6558.56  81.4894
 57.3796  6277.67  79.5399
 57.5776  6345.36  79.8763
 57.7756  6220  79.7271
 57.9736  6257.41  79.6413
 58.1716  6250.48  79.8571
 58.3696  6033.2  78.2264
 58.5676  6090.05  78.0644
 58.7656  6041.83  78.4303
 58.9636  6212.68  79.5581
 59.1616  6028.16  78.5004
 59.3596  6072.64  78.0533
 59.5576  6049.09  77.9601
 59.7556  5942.29  77.6837
 59.9536  6008.03  78.0114
 60.1516  5924.17  78.3057
 60.1996  0.0000000E+00  0.0000000E+00