File: docs/examples/opeando_xrd/IS17_D/Data/IS17_D/17_Da_f00022.xye
# /beamlines/bl04/projects/cycle2025-II/20250340211-lsimonelli/DATA/IS17_D/17_Da_f00022.xye : mythproc.py merge -s 0.006 -l 0.5 -f /beamlines/bl04/inhouse/ff/FlatField/ff_20Nov2024rod8mm60s_17keV.raw -b True -c true -o xye /beamlines/bl04/projects/cycle2025-II/20250340211-lsimonelli/DATA/IS17_D/17_Da_00022.dat
# IsMon = [6774070, 6781284, 6784582]  IsPos = [-1.5000, -2.4885, -3.4986]
# Wave = 0.4962  CalPath /beamlines/bl04/projects/cycle2025-II/20250340211-lsimonelli/DATA/Align/Si_Pos1_25keV_f00001.cal
# Date = 2025-09-23_23:41:38 Dt = 4.8000  Bin = 0.0060  <imon> = 6779979 +/- 4390 (Min/Max) 6774070 / 6784582
# icurr 252.1892  mocoIn 1.7204E-05  mocoOut 0.8079  i15 7.09486e+06  imon 6.77998e+06  i7 5.0000  iEMpd_timer 4.8000  iEMpd_1 3.5769E-08  iEMpd_2 7.8142E-08  iEMpd_3 1.7938E-08  iEMpd_4 4.7508E-08  iEMhp_timer 4.8000  iEMhp_1 4.9271E-06  iEMhp_2 -2.4597E-08  iEMhp_3 -2.2974E-08  iEMhp_4 -1.9352E-08
#      9776
 1.7416  69133.6  263.123
 1.9396  44709  211.862
 2.1376  31339.8  177.383
 2.3356  27943.9  167.146
 2.5336  27818.9  167.358
 2.7316  24650.7  157.606
 2.9296  23554.2  154.225
 3.1276  23032.2  152.081
 3.3256  22562.5  150.17
 3.5236  24521.5  156.517
 3.7216  22552.8  151.156
 3.9196  22124.8  148.963
 4.1176  21956.3  148.178
 4.3156  23196.4  152.442
 4.5136  25946.5  160.225
 4.7116  26793.3  163.946
 4.9096  26265.4  161.765
 5.1076  25904.6  161.239
 5.3056  26204.6  161.78
 5.5036  25831.3  160.626
 5.7016  26197.6  161.73
 5.8996  26956.4  163.283
 6.0976  27469.6  166.256
 6.2956  27934.8  166.974
 6.4936  28690.8  168.432
 6.6916  28951.5  170.185
 6.8896  29701.9  172.23
 7.0876  30800.6  176.049
 7.2856  30523.7  174.391
 7.4836  31156  175.531
 7.6816  31643.1  177.425
 7.8796  33126.6  181.488
 8.0776  36160.9  190.612
 8.2756  36783.5  190.846
 8.4736  36935.8  191.067
 8.6716  36271.8  189.969
 8.8696  36564.6  191.247
 9.0676  35699.2  188.337
 9.2656  34073.6  184.677
 9.4636  33634.1  181.899
 9.6616  32985.6  180.894
 9.8596  31692.4  176.835
 10.0576  30097.3  172.963
 10.2556  29104.9  170.529
 10.4536  30461.5  174.058
 10.6516  30936.4  175.605
 10.8496  26737.2  162.656
 11.0476  26511.4  161.94
 11.2456  27309.8  164.957
 11.4436  25712.7  159.239
 11.6416  25123.3  157.756
 11.8396  23861.7  153.959
 12.0376  23673.4  152.949
 12.2356  24158.1  154.968
 12.4336  23702.1  153.022
 12.6316  22834.2  150.469
 12.8296  23406.5  151.975
 13.0276  23739.4  153.219
 13.2256  23818  153.837
 13.4236  23812.9  153.599
 13.6216  23500.2  152.615
 13.8196  24258.9  154.813
 14.0176  23406  152.34
 14.2156  22705.7  149.102
 14.4136  21873.9  147.713
 14.6116  21321.5  145.058
 14.8096  20628.3  142.651
 15.0076  19804.8  143.572
 15.2056  19435  138.057
 15.4036  18275.6  134.685
 15.6016  18051.5  132.956
 15.7996  17661.1  131.778
 15.9976  16902.8  131.849
 16.1956  16436.1  127.928
 16.3936  16083.5  125.739
 16.5916  15861.1  125.49
 16.7896  15870.8  125.583
 16.9876  15762.4  126.6
 17.1856  15577.2  124.242
 17.3836  15010.4  121.869
 17.5816  14599.1  120.671
 17.7796  14634  120.746
 17.9776  14656.7  121.61
 18.1756  15077.9  122.027
 18.3736  15088.4  122.592
 18.5716  14136.5  118.426
 18.7696  14172.9  118.146
 18.9676  13721.1  116.072
 19.1656  13785.4  116.879
 19.3636  13600.3  116.296
 19.5616  13592  116.423
 19.7596  13588.4  115.834
 19.9576  14007.5  117.647
 20.1556  13584.2  116.367
 20.3536  13307.6  114.573
 20.5516  13035.1  113.832
 20.7496  12617.8  111.865
 20.9476  12888.2  112.892
 21.1456  13134.3  114.279
 21.3436  12651.3  112.12
 21.5416  12615  111.955
 21.7396  12378.8  110.753
 21.9376  12418.1  110.697
 22.1356  12511.9  111.267
 22.3336  12414.9  111.057
 22.5316  12436  111.251
 22.7296  12220.6  109.661
 22.9276  12142.4  109.967
 23.1256  12648.9  111.714
 23.3236  12328.8  110.88
 23.5216  12177.7  109.856
 23.7196  12038.4  109.403
 23.9176  12022.8  108.878
 24.1156  11949.8  108.997
 24.3136  11425  107.365
 24.5116  11664  108.013
 24.7096  11252.9  105.913
 24.9076  11119.2  105.318
 25.1056  11059.4  105.201
 25.3036  10825.2  103.853
 25.5016  10837.4  103.951
 25.6996  10883.7  103.764
 25.8976  10954  104.54
 26.0956  10783.4  103.723
 26.2936  10676.1  102.861
 26.4916  10858.1  103.621
 26.6896  10483.8  102.11
 26.8876  10274.6  100.954
 27.0856  10418.3  101.656
 27.2836  10205.4  100.699
 27.4816  10244.9  100.677
 27.6796  10072.4  100.195
 27.8776  10066.9  100.035
 28.0756  10082.6  100.382
 28.2736  9907.94  99.1021
 28.4716  9771.91  98.4681
 28.6696  9694.39  97.9255
 28.8676  9608.87  97.8405
 29.0656  9532.15  97.4237
 29.2636  9511.84  97.046
 29.4616  9421.01  96.8132
 29.6596  9489.73  96.7348
 29.8576  9340.3  96.648
 30.0556  9498.36  97.3383
 30.2536  9499.3  97.1395
 30.4516  9367  96.1425
 30.6496  9317.85  95.6154
 30.8476  9141.52  95.145
 31.0456  9187.4  95.3523
 31.2436  9057.19  93.9562
 31.4416  8872.06  93.1619
 31.6396  9253.91  95.197
 31.8376  9020.52  93.5378
 32.0356  9043.4  94.2207
 32.2336  8844.33  92.5834
 32.4316  8778.06  92.6086
 32.6296  8805.38  92.5285
 32.8276  8707.69  91.8482
 33.0256  8698.54  91.8883
 33.2236  8650.18  91.7829
 33.4216  8759.17  92.0325
 33.6196  8697.11  92.0035
 33.8176  8688.86  92.1256
 34.0156  8495.15  90.7055
 34.2136  8403.4  90.2676
 34.4116  8521.04  91.0364
 34.6096  8434.78  90.4547
 34.8076  8342.14  90.3645
 35.0056  8368.42  90.2003
 35.2036  8302.64  90.0613
 35.4016  8311.31  90.0181
 35.5996  8262.74  89.7927
 35.7976  8192.89  89.677
 35.9956  8296.89  89.9054
 36.1936  8234.31  89.43
 36.3916  8091.52  88.8265
 36.5896  8083.83  90.2017
 36.7876  8075.38  89.0925
 36.9856  7982.19  88.6046
 37.1836  8070.27  88.2012
 37.3816  8034.94  88.3638
 37.5796  7958.45  89.6661
 37.7776  7797.01  87.1708
 37.9756  7799.06  87.071
 38.1736  8158.77  89.2409
 38.3716  7910.78  88.1443
 38.5696  7848.07  88.1647
 38.7676  7589.66  86.2287
 38.9656  7711.17  86.5588
 39.1636  7667.36  86.5459
 39.3616  7846.02  87.4979
 39.5596  7682.87  87.414
 39.7576  7590.9  86.2782
 39.9556  7853.1  87.3953
 40.1536  7825.85  87.4455
 40.3516  7799.17  87.3734
 40.5496  7778.2  87.2392
 40.7476  7758.95  87.3492
 40.9456  7881.3  87.7766
 41.1436  7789.78  87.0052
 41.3416  7738.35  87.0299
 41.5396  7755.74  86.9477
 41.7376  7722.93  87.0264
 41.9356  7724.8  86.8952
 42.1336  7690.71  86.8566
 42.3316  7616.44  86.617
 42.5296  7789.36  87.1176
 42.7276  7731.62  87.0354
 42.9256  7651.9  86.4561
 43.1236  7558  86.031
 43.3216  7565.36  85.93
 43.5196  7508.17  85.5683
 43.7176  7567.75  86.2938
 43.9156  7333.7  84.8398
 44.1136  7360.91  84.5603
 44.3116  7435.99  84.9931
 44.5096  7245.56  84.2092
 44.7076  7369.19  84.8539
 44.9056  7299.92  84.3497
 45.1036  7307.07  84.0182
 45.3016  7205.18  83.9248
 45.4996  7192.31  83.7898
 45.6976  7005.11  82.8508
 45.8956  7202.96  83.8538
 46.0936  7239.19  83.8294
 46.2916  7182  83.7171
 46.4896  7183.37  83.7574
 46.6876  7160.71  84.3314
 46.8856  6976.9  82.6102
 47.0836  7013.94  82.969
 47.2816  6943.46  82.4255
 47.4796  6946.07  82.546
 47.6776  6839.12  82.8248
 47.8756  6981.83  82.8719
 48.0736  6928.1  82.995
 48.2716  6690.43  81.3846
 48.4696  6825.69  81.8119
 48.6676  6841.65  82.4853
 48.8656  6952.06  82.8809
 49.0636  6885.05  82.4389
 49.2616  6635.12  80.9432
 49.4596  6673.89  80.7574
 49.6576  6677.98  81.0034
 49.8556  6707.26  81.1997
 50.0536  6711.82  81.6677
 50.2516  6612.16  81.1616
 50.4496  6586.61  80.6948
 50.6476  6596.96  80.4492
 50.8456  6523.97  80.0916
 51.0436  6427.34  79.9045
 51.2416  6478.38  79.8949
 51.4396  6206.37  78.5914
 51.6376  6306.58  79.0494
 51.8356  6403.28  79.2978
 52.0336  6272.3  78.9947
 52.2316  6327.78  79.6849
 52.4296  6399.39  79.8257
 52.6276  6349.74  79.6279
 52.8256  6330.94  79.0895
 53.0236  6272.69  79.3563
 53.2216  6102.66  78.2762
 53.4196  6182.5  78.7414
 53.6176  6109.48  78.7423
 53.8156  6055.95  78.0799
 54.0136  6155.73  78.873
 54.2116  6168.38  78.6347
 54.4096  6118.8  78.3524
 54.6076  5963.4  77.6907
 54.8056  6081.59  78.2534
 55.0036  6032.63  78.1986
 55.2016  6122.34  78.3814
 55.3996  6020.41  77.7635
 55.5976  6028.74  78.0017
 55.7956  6004.21  77.6653
 55.9936  6036.98  78.0198
 56.1916  5946.15  77.444
 56.3896  6030.79  77.9746
 56.5876  5969.63  78.1246
 56.7856  5945.34  77.4519
 56.9836  5861.55  76.7124
 57.1816  5965.07  77.7536
 57.3796  6021.78  77.8836
 57.5776  5979.55  77.5708
 57.7756  5869.48  77.4787
 57.9736  5921.86  77.5042
 58.1716  5923.07  77.7451
 58.3696  5880.25  77.2099
 58.5676  5946.7  77.1302
 58.7656  5873.94  77.3096
 58.9636  6094.61  78.7808
 59.1616  5975.84  78.1368
 59.3596  6152.54  78.5341
 59.5576  6035.15  77.8381
 59.7556  5918.7  77.4974
 59.9536  6015.91  78.0303
 60.1516  6011.02  78.8451
 60.1996  0.0000000E+00  0.0000000E+00