File: docs/examples/opeando_xrd/IS17_D/Data/IS17_D/17_Da_f00085.xye
# /beamlines/bl04/projects/cycle2025-II/20250340211-lsimonelli/DATA/IS17_D/17_Da_f00085.xye : mythproc.py merge -s 0.006 -l 0.5 -f /beamlines/bl04/inhouse/ff/FlatField/ff_20Nov2024rod8mm60s_17keV.raw -b True -c true -o xye /beamlines/bl04/projects/cycle2025-II/20250340211-lsimonelli/DATA/IS17_D/17_Da_00085.dat
# IsMon = [6750772, 6751893, 6753086]  IsPos = [-1.4999, -2.4884, -3.4988]
# Wave = 0.4962  CalPath /beamlines/bl04/projects/cycle2025-II/20250340211-lsimonelli/DATA/Align/Si_Pos1_25keV_f00001.cal
# Date = 2025-09-24_17:14:08 Dt = 4.8000  Bin = 0.0060  <imon> = 6751917 +/- 945 (Min/Max) 6750772 / 6753086
# icurr 249.2055  mocoIn 1.7000E-05  mocoOut 0.7976  i15 7.06955e+06  imon 6.75192e+06  i7 6.0000  iEMpd_timer 4.8000  iEMpd_1 3.3979E-08  iEMpd_2 7.8236E-08  iEMpd_3 1.4735E-08  iEMpd_4 4.7268E-08  iEMhp_timer 4.8000  iEMhp_1 4.8689E-06  iEMhp_2 -2.4800E-08  iEMhp_3 -2.4666E-08  iEMhp_4 -2.1880E-08
#      9776
 1.7416  69753.8  264.208
 1.9396  45292.6  213.173
 2.1376  31927.6  178.976
 2.3356  28854.5  169.787
 2.5336  26947.3  164.658
 2.7316  24959.9  158.573
 2.9296  23825.4  155.09
 3.1276  23384.5  153.196
 3.3256  23465.7  153.138
 3.5236  25156.2  158.363
 3.7216  23022.9  152.726
 3.9196  22476.6  150.142
 4.1176  22415.4  149.709
 4.3156  23807  154.444
 4.5136  26194  160.993
 4.7116  27176.2  165.116
 4.9096  26628.5  162.878
 5.1076  26356.8  162.624
 5.3056  26737.2  163.519
 5.5036  26522  162.756
 5.7016  26878.2  163.817
 5.8996  27608.2  165.234
 6.0976  28277.3  168.67
 6.2956  28739.8  169.377
 6.4936  29322.4  170.283
 6.6916  29594.1  172.063
 6.8896  30432.6  174.343
 7.0876  31388  177.782
 7.2856  31253.9  176.464
 7.4836  31601.1  176.782
 7.6816  32129.3  178.78
 7.8796  33583.4  182.771
 8.0776  35554.7  189.036
 8.2756  37331.5  192.309
 8.4736  37666.8  192.975
 8.6716  37202.7  192.423
 8.8696  36884.7  192.074
 9.0676  36160.1  189.544
 9.2656  35419.3  188.284
 9.4636  34741.9  184.883
 9.6616  34397.8  184.741
 9.8596  32767.1  179.784
 10.0576  31070.6  175.727
 10.2556  30039.8  173.228
 10.4536  29583.3  171.506
 10.6516  29245.6  170.721
 10.8496  27934.3  166.254
 11.0476  27154.6  163.949
 11.2456  26792.3  163.386
 11.4436  26550.5  161.81
 11.6416  25889.3  160.147
 11.8396  24576.7  156.237
 12.0376  24557.8  155.812
 12.2356  24156.5  154.935
 12.4336  23926.4  153.748
 12.6316  23518.5  152.695
 12.8296  23908.4  153.594
 13.0276  24527.2  155.747
 13.2256  24513.4  156.073
 13.4236  24395.8  155.468
 13.6216  24188.6  154.823
 13.8196  24131.5  154.406
 14.0176  23923.4  154.021
 14.2156  23236.1  150.85
 14.4136  22186.7  148.759
 14.6116  21948.3  147.174
 14.8096  21258.9  144.828
 15.0076  20293.9  145.305
 15.2056  19960  139.934
 15.4036  18774.2  136.536
 15.6016  18539.6  134.765
 15.7996  18250.9  133.991
 15.9976  17267.5  133.258
 16.1956  16770  129.215
 16.3936  16548.9  127.539
 16.5916  16378.4  127.507
 16.7896  16318  127.332
 16.9876  16264.4  128.593
 17.1856  15771.5  125.009
 17.3836  15224  122.721
 17.5816  14990.9  122.265
 17.7796  15019.2  122.31
 17.9776  14889.9  122.573
 18.1756  15214.6  122.589
 18.3736  15026.9  122.351
 18.5716  14705.9  120.781
 18.7696  14489.4  119.46
 18.9676  14352.2  118.703
 19.1656  14011.6  117.835
 19.3636  13993  117.966
 19.5616  13938.5  117.903
 19.7596  14052.2  117.788
 19.9576  14447.9  119.487
 20.1556  13918.7  117.8
 20.3536  13676.6  116.138
 20.5516  13336.9  115.143
 20.7496  13103.5  114.074
 20.9476  13085  113.744
 21.1456  13234.6  114.724
 21.3436  12948.5  113.423
 21.5416  12798.6  112.773
 21.7396  12652.6  111.968
 21.9376  12612.7  111.562
 22.1356  12733.4  112.218
 22.3336  12666.4  112.216
 22.5316  12651  112.235
 22.7296  12743.3  112.002
 22.9276  12667.5  112.345
 23.1256  12759.6  112.228
 23.3236  12565.3  111.93
 23.5216  12531.4  111.436
 23.7196  12429  110.929
 23.9176  12376.4  110.447
 24.1156  12226.5  110.247
 24.3136  11732.2  108.786
 24.5116  11826.4  108.746
 24.7096  11561.9  107.344
 24.9076  11182  105.591
 25.1056  11053.6  105.444
 25.3036  11070.4  105.03
 25.5016  11177.7  105.571
 25.6996  11023.3  104.423
 25.8976  10899.3  104.266
 26.0956  11035.7  104.936
 26.2936  11058.9  104.687
 26.4916  11019.7  104.381
 26.6896  10670.2  103.011
 26.8876  10616  102.604
 27.0856  10639.3  102.763
 27.2836  10422.9  101.609
 27.4816  10316.6  101.025
 27.6796  10182.2  100.741
 27.8776  10158.1  100.481
 28.0756  10266  101.298
 28.2736  10156.7  100.341
 28.4716  9888.27  99.0518
 28.6696  9832.74  98.6266
 28.8676  9938.97  99.5065
 29.0656  9684.76  98.2026
 29.2636  9654.35  97.8419
 29.4616  9617.75  97.836
 29.6596  9668.42  97.6585
 29.8576  9551.86  97.7541
 30.0556  9557.52  97.6599
 30.2536  9655.92  97.9534
 30.4516  9453.74  96.5786
 30.6496  9558.82  96.8424
 30.8476  9323.87  96.0846
 31.0456  9401.04  96.4421
 31.2436  9301.61  95.2036
 31.4416  9252.72  95.1306
 31.6396  9326.68  95.5587
 31.8376  9268.81  94.8124
 32.0356  9143.49  94.729
 32.2336  9018.87  93.474
 32.4316  8893.95  93.2219
 32.6296  8898.08  93.0792
 32.8276  9018.03  93.4808
 33.0256  8899.9  92.9401
 33.2236  8906.95  93.1247
 33.4216  8845.77  92.5008
 33.6196  8862.18  92.8765
 33.8176  8892.89  93.1966
 34.0156  8724.92  91.9326
 34.2136  8627.15  91.4584
 34.4116  8676.23  91.8678
 34.6096  8598.33  91.3339
 34.8076  8559.92  91.5362
 35.0056  8506.03  90.9406
 35.2036  8380.8  90.4759
 35.4016  8402.71  90.5183
 35.5996  8453.16  90.8229
 35.7976  8299.26  90.2683
 35.9956  8386.48  90.3867
 36.1936  8375.81  90.1983
 36.3916  8276.66  89.8343
 36.5896  8309.69  90.9919
 36.7876  8250.72  90.0672
 36.9856  8132.16  89.4463
 37.1836  8147.71  88.6388
 37.3816  8270.81  89.67
 37.5796  8082.21  90.362
 37.7776  8034.61  88.4823
 37.9756  8013.38  88.2471
 38.1736  8177.54  89.3401
 38.3716  8059.37  88.9661
 38.5696  7913.13  88.5273
 38.7676  7700.74  86.8507
 38.9656  7825.8  87.1913
 39.1636  7817.51  87.4095
 39.3616  7966.36  88.1599
 39.5596  7789.04  88.0163
 39.7576  7805.2  87.4861
 39.9556  7926.75  87.8067
 40.1536  7883.6  87.7644
 40.3516  7973.93  88.2777
 40.5496  8014.21  88.7612
 40.7476  7901.49  88.143
 40.9456  7964.34  88.2349
 41.1436  7913.61  87.6833
 41.3416  7896.81  87.9231
 41.5396  7711.7  86.699
 41.7376  7814.15  87.5321
 41.9356  7705.05  86.7825
 42.1336  7780.95  87.3511
 42.3316  7804.14  87.6811
 42.5296  7793.69  87.1452
 42.7276  7811.39  87.483
 42.9256  7744.73  86.9807
 43.1236  7710.85  86.8964
 43.3216  7746.34  86.8459
 43.5196  7607.65  86.1302
 43.7176  7653.18  86.772
 43.9156  7510.04  85.8739
 44.1136  7400.95  84.8036
 44.3116  7568.78  85.7726
 44.5096  7549.8  85.9726
 44.7076  7412.98  85.1241
 44.9056  7521.41  85.6153
 45.1036  7254.38  83.7128
 45.3016  7279.6  84.3543
 45.4996  7349.38  84.6945
 45.6976  7191.16  83.9517
 45.8956  7260.39  84.1769
 46.0936  7281.81  84.3046
 46.2916  7330.42  84.5674
 46.4896  7218.35  83.9505
 46.6876  7123.68  84.0956
 46.8856  7145.64  83.4878
 47.0836  7103.92  83.4937
 47.2816  7024.99  82.9006
 47.4796  7038.75  83.0746
 47.6776  6993.01  83.7513
 47.8756  7034.17  83.1896
 48.0736  6974.95  83.2852
 48.2716  6760.01  81.8152
 48.4696  7046.81  83.1127
 48.6676  6834.79  82.4413
 48.8656  6870.3  82.3805
 49.0636  6992.31  83.0605
 49.2616  6771.7  81.7775
 49.4596  6836.9  81.7455
 49.6576  6821.38  81.8716
 49.8556  6842.83  82.016
 50.0536  6846.22  82.4761
 50.2516  6742.65  81.9877
 50.4496  6703.86  81.4082
 50.6476  6633.53  80.6691
 50.8456  6653.26  80.8658
 51.0436  6431.95  79.9492
 51.2416  6586.25  80.5802
 51.4396  6499.01  80.4357
 51.6376  6438.29  79.8872
 51.8356  6457.82  79.6463
 52.0336  6431.58  79.9827
 52.2316  6430.2  80.3242
 52.4296  6438.87  80.0675
 52.6276  6369.68  79.7452
 52.8256  6381.99  79.4036
 53.0236  6315.39  79.6165
 53.2216  6178.16  78.7809
 53.4196  6191.94  78.7939
 53.6176  6233.75  79.5294
 53.8156  6208.86  79.0403
 54.0136  6261.54  79.5535
 54.2116  6201.45  78.8341
 54.4096  6190.18  78.8119
 54.6076  6161.18  78.9708
 54.8056  6100.93  78.3787
 55.0036  6198.95  79.3962
 55.2016  6182.36  78.84
 55.3996  6177.91  78.7792
 55.5976  6153.21  78.8064
 55.7956  6163.76  78.6912
 55.9936  6107.7  78.4609
 56.1916  6153.37  78.7815
 56.3896  6110.28  78.4903
 56.5876  6003.26  78.3459
 56.7856  6071.58  78.2802
 56.9836  6017.9  77.7191
 57.1816  6061.77  78.3744
 57.3796  6146.88  78.7156
 57.5776  6120.4  78.4779
 57.7756  5931.82  77.8881
 57.9736  6013.2  78.0983
 58.1716  5988.72  78.1725
 58.3696  6046.79  78.3061
 58.5676  6050.45  77.8154
 58.7656  6126.11  78.9647
 58.9636  6145.97  79.1308
 59.1616  6088.54  78.8788
 59.3596  6200.18  78.8535
 59.5576  6203.42  78.9357
 59.7556  6097.94  78.682
 59.9536  6098.91  78.5866
 60.1516  6042.08  79.0685
 60.1996  0.0000000E+00  0.0000000E+00