File: docs/examples/opeando_xrd/IS17_D/Data/IS17_D/17_Da_f00079.xye
# /beamlines/bl04/projects/cycle2025-II/20250340211-lsimonelli/DATA/IS17_D/17_Da_f00079.xye : mythproc.py merge -s 0.006 -l 0.5 -f /beamlines/bl04/inhouse/ff/FlatField/ff_20Nov2024rod8mm60s_17keV.raw -b True -c true -o xye /beamlines/bl04/projects/cycle2025-II/20250340211-lsimonelli/DATA/IS17_D/17_Da_00079.dat
# IsMon = [6749493, 6747937, 6755336]  IsPos = [-1.4999, -2.4884, -3.4988]
# Wave = 0.4962  CalPath /beamlines/bl04/projects/cycle2025-II/20250340211-lsimonelli/DATA/Align/Si_Pos1_25keV_f00001.cal
# Date = 2025-09-24_15:34:38 Dt = 4.8000  Bin = 0.0060  <imon> = 6750922 +/- 3185 (Min/Max) 6747937 / 6755336
# icurr 249.1428  mocoIn 1.7002E-05  mocoOut 0.7976  i15 7.06757e+06  imon 6.75092e+06  i7 5.3333  iEMpd_timer 4.8000  iEMpd_1 3.2678E-08  iEMpd_2 7.8183E-08  iEMpd_3 1.7153E-08  iEMpd_4 4.6547E-08  iEMhp_timer 4.8000  iEMhp_1 4.8684E-06  iEMhp_2 -2.4260E-08  iEMhp_3 -2.3141E-08  iEMhp_4 -2.0668E-08
#      9776
 1.7416  68433.2  261.7
 1.9396  44447.4  211.177
 2.1376  31453.4  177.646
 2.3356  28453.2  168.606
 2.5336  27269.6  165.643
 2.7316  25007.2  158.74
 2.9296  23497.9  154.04
 3.1276  23089.9  152.251
 3.3256  22758.9  150.837
 3.5236  24562  156.506
 3.7216  22518.7  151.044
 3.9196  22451.3  150.055
 4.1176  22188  148.947
 4.3156  23180.4  152.389
 4.5136  26219.2  161.078
 4.7116  26854.8  164.134
 4.9096  26077  161.188
 5.1076  25655.5  160.448
 5.3056  26385.5  162.43
 5.5036  25895  160.832
 5.7016  26463  162.547
 5.8996  26959.7  163.288
 6.0976  27684.3  166.894
 6.2956  28032.6  167.278
 6.4936  28722.1  168.534
 6.6916  29256.9  171.08
 6.8896  30006.9  173.12
 7.0876  31068.2  176.877
 7.2856  30855.8  175.335
 7.4836  31728  177.137
 7.6816  31997.3  178.413
 7.8796  33726.3  183.16
 8.0776  37344.2  193.734
 8.2756  37786.7  193.455
 8.4736  37566.5  192.72
 8.6716  36887.3  191.617
 8.8696  37627.2  193.967
 9.0676  36947.1  191.576
 9.2656  35153.9  187.55
 9.4636  34569.5  184.395
 9.6616  33846.5  183.221
 9.8596  32573.6  179.275
 10.0576  30993.2  175.541
 10.2556  29983.9  173.085
 10.4536  31950.5  178.26
 10.6516  34139.7  184.485
 10.8496  27814.7  165.892
 11.0476  27128.9  163.871
 11.2456  29315.1  170.916
 11.4436  26403.6  161.367
 11.6416  25879.8  160.116
 11.8396  24598.6  156.304
 12.0376  24204.3  154.677
 12.2356  25621  159.571
 12.4336  24469.5  155.481
 12.6316  23540.8  152.766
 12.8296  24211.3  154.565
 13.0276  24429.7  155.437
 13.2256  24312.1  155.426
 13.4236  24271.5  155.065
 13.6216  24057.1  154.403
 13.8196  24915.5  156.895
 14.0176  23935.8  154.062
 14.2156  23463.5  151.584
 14.4136  22146.8  148.634
 14.6116  21753.8  146.522
 14.8096  21164.7  144.499
 15.0076  20229.4  145.102
 15.2056  19785.8  139.317
 15.4036  18980.2  137.287
 15.6016  18504.1  134.638
 15.7996  17984.8  132.998
 15.9976  17276.4  133.288
 16.1956  16964.2  129.946
 16.3936  16358.2  126.787
 16.5916  16338  127.34
 16.7896  16384.7  127.579
 16.9876  16215.8  128.405
 17.1856  15947  125.721
 17.3836  15154.6  122.461
 17.5816  15037.5  122.466
 17.7796  14964.6  122.102
 17.9776  15192  123.799
 18.1756  15725.8  124.638
 18.3736  15853.7  125.676
 18.5716  14533.6  120.073
 18.7696  14674  120.222
 18.9676  14117.7  117.729
 19.1656  14089.6  118.158
 19.3636  13952  117.803
 19.5616  14010.9  118.209
 19.7596  13821.8  116.817
 19.9576  14536.7  119.855
 20.1556  13792.9  117.268
 20.3536  13438.7  115.14
 20.5516  13262.4  114.821
 20.7496  13070.7  113.931
 20.9476  13163.4  114.084
 21.1456  13543  116.051
 21.3436  12965.9  113.505
 21.5416  12800.8  112.781
 21.7396  12599.5  111.734
 21.9376  12818  112.462
 22.1356  12959.7  113.218
 22.3336  12815.3  112.881
 22.5316  12693.9  112.422
 22.7296  12542.8  111.111
 22.9276  12324  110.812
 23.1256  12892  112.787
 23.3236  12449  111.388
 23.5216  12487.4  111.225
 23.7196  12331.5  110.476
 23.9176  12360.9  110.374
 24.1156  12099.1  109.659
 24.3136  11864.7  109.411
 24.5116  11931  109.242
 24.7096  11525.9  107.189
 24.9076  11381.7  106.531
 25.1056  11283  106.545
 25.3036  11146  105.392
 25.5016  11165.3  105.511
 25.6996  11150.2  105.019
 25.8976  11144.3  105.434
 26.0956  11111  105.289
 26.2936  10928.6  104.076
 26.4916  11091.3  104.725
 26.6896  10614.9  102.748
 26.8876  10518.9  102.138
 27.0856  10588.2  102.519
 27.2836  10370.3  101.358
 27.4816  10509.9  101.969
 27.6796  10185.3  100.757
 27.8776  10422.3  101.772
 28.0756  10220.5  101.072
 28.2736  10197.5  100.543
 28.4716  9996.71  99.5933
 28.6696  10053.7  99.7256
 28.8676  9908.33  99.3499
 29.0656  9644.53  97.9987
 29.2636  9758.88  98.3739
 29.4616  9649.14  97.994
 29.6596  9728.6  97.9615
 29.8576  9380.18  96.8707
 30.0556  9758.96  98.6732
 30.2536  9686.17  98.1063
 30.4516  9563.2  97.129
 30.6496  9539.65  96.7358
 30.8476  9298.89  95.9459
 31.0456  9284.11  95.8342
 31.2436  9275.72  95.0572
 31.4416  9117.49  94.4423
 31.6396  9527.18  96.5909
 31.8376  9261.11  94.7831
 32.0356  9161.89  94.8329
 32.2336  9029.33  93.5348
 32.4316  8981.97  93.6891
 32.6296  9071.41  93.9907
 32.8276  8996.86  93.3716
 33.0256  8833.11  92.5906
 33.2236  8885.85  93.0186
 33.4216  8866.85  92.5962
 33.6196  8817.55  92.6472
 33.8176  8764.45  92.517
 34.0156  8827.29  92.4738
 34.2136  8635.32  91.5017
 34.4116  8596.34  91.4431
 34.6096  8600.98  91.3441
 34.8076  8473.45  91.0678
 35.0056  8532.94  91.0857
 35.2036  8461.76  90.9099
 35.4016  8452.33  90.7858
 35.5996  8378.41  90.421
 35.7976  8254.71  90.026
 35.9956  8435.54  90.6477
 36.1936  8380.77  90.2221
 36.3916  8227.03  89.562
 36.5896  8355.17  91.243
 36.7876  8351.05  90.6152
 36.9856  8152.4  89.5583
 37.1836  8141.77  88.6051
 37.3816  8248.5  89.5431
 37.5796  8103.09  90.4774
 37.7776  7944.58  87.9742
 37.9756  8045.58  88.4173
 38.1736  8314.93  90.0756
 38.3716  8209.79  89.7829
 38.5696  8021.43  89.134
 38.7676  7794.54  87.3885
 38.9656  7773.05  86.9072
 39.1636  7852.96  87.6167
 39.3616  7965.56  88.1753
 39.5596  7760.47  87.8602
 39.7576  7837.51  87.6689
 39.9556  7867.83  87.483
 40.1536  7966.07  88.2188
 40.3516  7990.19  88.3686
 40.5496  8033.05  88.8685
 40.7476  7903.65  88.1563
 40.9456  7967.4  88.2626
 41.1436  7947.43  87.8738
 41.3416  7974.36  88.3511
 41.5396  7763.38  86.9916
 41.7376  7999.22  88.5625
 41.9356  7852.99  87.6135
 42.1336  7864.31  87.824
 42.3316  7834.67  87.8543
 42.5296  7795.29  87.153
 42.7276  7858.51  87.7406
 42.9256  7757.01  87.0476
 43.1236  7649.43  86.5495
 43.3216  7750.03  86.8624
 43.5196  7567  85.9047
 43.7176  7670.04  86.8724
 43.9156  7627.26  86.5387
 44.1136  7577.22  85.8046
 44.3116  7506.89  85.4163
 44.5096  7457.26  85.4384
 44.7076  7575.53  86.0514
 44.9056  7545.42  85.7424
 45.1036  7373.93  84.3928
 45.3016  7346.5  84.7264
 45.4996  7319.62  84.5147
 45.6976  7257.45  84.3236
 45.8956  7360.43  84.7653
 46.0936  7415.98  85.0868
 46.2916  7325.32  84.5469
 46.4896  7253.23  84.1538
 46.6876  7268.41  84.9588
 46.8856  7172.79  83.6493
 47.0836  7200.19  84.0596
 47.2816  7105.9  83.3885
 47.4796  7171.97  83.8742
 47.6776  7042.63  84.0458
 47.8756  7039.58  83.2133
 48.0736  7054.21  83.7526
 48.2716  6900.36  82.6469
 48.4696  7131.68  83.6238
 48.6676  6961.27  83.2005
 48.8656  6976.66  83.0214
 49.0636  6923.64  82.6617
 49.2616  6895.02  82.5172
 49.4596  6827.92  81.6873
 49.6576  6765.59  81.5265
 49.8556  6790.71  81.7039
 50.0536  6819.54  82.3202
 50.2516  6800.83  82.3342
 50.4496  6771.77  81.8257
 50.6476  6780.33  81.5612
 50.8456  6736.45  81.381
 51.0436  6561.08  80.7469
 51.2416  6553.24  80.3717
 51.4396  6373.05  79.6533
 51.6376  6559.7  80.6433
 51.8356  6551.26  80.2305
 52.0336  6342.68  79.4239
 52.2316  6377.08  79.9759
 52.4296  6466.49  80.2255
 52.6276  6416.37  80.0385
 52.8256  6528.57  80.2855
 53.0236  6277.84  79.3887
 53.2216  6302.46  79.5776
 53.4196  6209.18  78.9015
 53.6176  6251.13  79.6499
 53.8156  6295.67  79.6024
 54.0136  6357.82  80.1509
 54.2116  6234.35  79.044
 54.4096  6206.81  78.9259
 54.6076  6203.85  79.245
 54.8056  6067.19  78.1612
 55.0036  6190.07  79.3338
 55.2016  6138.58  78.5561
 55.3996  6141.75  78.5484
 55.5976  6223.15  79.2463
 55.7956  6117.48  78.3994
 55.9936  6100.12  78.421
 56.1916  6139.44  78.6746
 56.3896  6116.98  78.5323
 56.5876  5985.78  78.2279
 56.7856  6060.11  78.1982
 56.9836  6047.1  77.9056
 57.1816  6171.11  79.0812
 57.3796  6076.09  78.2746
 57.5776  6140.36  78.604
 57.7756  6049.59  78.6594
 57.9736  6096.17  78.6327
 58.1716  6162.21  79.2974
 58.3696  6013.97  78.0985
 58.5676  6177.2  78.6247
 58.7656  6150.42  79.126
 58.9636  6167.68  79.2687
 59.1616  6177.33  79.4427
 59.3596  6196.47  78.8154
 59.5576  6121.85  78.3962
 59.7556  6161.94  79.0748
 59.9536  6298.26  79.8415
 60.1516  6231.34  80.2781
 60.1996  0.0000000E+00  0.0000000E+00