File: docs/examples/opeando_xrd/IS17_D/Data/IS17_D/17_Da_f00105.xye
# /beamlines/bl04/projects/cycle2025-II/20250340211-lsimonelli/DATA/IS17_D/17_Da_f00105.xye : mythproc.py merge -s 0.006 -l 0.5 -f /beamlines/bl04/inhouse/ff/FlatField/ff_20Nov2024rod8mm60s_17keV.raw -b True -c true -o xye /beamlines/bl04/projects/cycle2025-II/20250340211-lsimonelli/DATA/IS17_D/17_Da_00105.dat
# IsMon = [6761169, 6761847, 6763831]  IsPos = [-1.5000, -2.4884, -3.4988]
# Wave = 0.4962  CalPath /beamlines/bl04/projects/cycle2025-II/20250340211-lsimonelli/DATA/Align/Si_Pos1_25keV_f00001.cal
# Date = 2025-09-24_22:48:48 Dt = 4.8000  Bin = 0.0060  <imon> = 6762282 +/- 1130 (Min/Max) 6761169 / 6763831
# icurr 250.4914  mocoIn 1.7089E-05  mocoOut 0.8016  i15 7.08125e+06  imon 6.76228e+06  i7 6.3333  iEMpd_timer 4.8000  iEMpd_1 3.4386E-08  iEMpd_2 7.8446E-08  iEMpd_3 1.8068E-08  iEMpd_4 4.8389E-08  iEMhp_timer 4.8000  iEMhp_1 4.8925E-06  iEMhp_2 -2.4658E-08  iEMhp_3 -2.4441E-08  iEMhp_4 -2.1034E-08
#      9776
 1.7416  70513.1  265.641
 1.9396  46800.4  216.688
 2.1376  33583.4  183.558
 2.3356  30395.3  174.261
 2.5336  28380.8  168.98
 2.7316  26981.4  164.872
 2.9296  25915.1  161.751
 3.1276  25168.2  158.944
 3.3256  24422.5  156.232
 3.5236  26218.9  161.676
 3.7216  23751  155.12
 3.9196  23353.4  153.04
 4.1176  23089.3  151.939
 4.3156  24430.1  156.449
 4.5136  26726.1  162.62
 4.7116  27928.1  167.379
 4.9096  27025  164.09
 5.1076  26590.3  163.342
 5.3056  27027.8  164.407
 5.5036  26806  163.625
 5.7016  27308.2  165.121
 5.8996  27727.1  165.593
 6.0976  28515.6  169.38
 6.2956  28931.3  169.941
 6.4936  29658.1  171.251
 6.6916  29873.2  172.869
 6.8896  30694.5  175.095
 7.0876  32015.8  179.472
 7.2856  31823.9  178.068
 7.4836  31925.3  177.688
 7.6816  32818.9  180.69
 7.8796  34456.2  185.126
 8.0776  35802.2  189.697
 8.2756  37686.1  193.218
 8.4736  38131.7  194.168
 8.6716  37473.3  193.127
 8.8696  37296.4  193.127
 9.0676  36606.5  190.709
 9.2656  35285.8  187.921
 9.4636  34929.8  185.379
 9.6616  34119.7  183.985
 9.8596  32922.4  180.211
 10.0576  31032.9  175.625
 10.2556  30054.3  173.269
 10.4536  28575.6  168.561
 10.6516  28167.7  167.552
 10.8496  27161  163.94
 11.0476  26660.4  162.449
 11.2456  25712.5  160.058
 11.4436  25650.6  159.047
 11.6416  27182.5  164.096
 11.8396  24829.8  157.039
 12.0376  24553.7  155.797
 12.2356  24042.2  154.571
 12.4336  23895.7  153.64
 12.6316  23572.2  152.87
 12.8296  23932.3  153.671
 13.0276  24507.9  155.688
 13.2256  24853.7  157.154
 13.4236  24747.6  156.585
 13.6216  24451.6  155.661
 13.8196  24466.7  155.473
 14.0176  24052.3  154.43
 14.2156  23585.5  151.977
 14.4136  22555.9  150.001
 14.6116  22210.7  148.05
 14.8096  21518.3  145.707
 15.0076  20370.6  145.606
 15.2056  19973.8  139.982
 15.4036  19058.5  137.57
 15.6016  18807.6  135.738
 15.7996  18346.4  134.341
 15.9976  17456.6  133.993
 16.1956  16939.2  129.863
 16.3936  16513.4  127.4
 16.5916  16513.1  128.031
 16.7896  16354.6  127.473
 16.9876  16282.8  128.672
 17.1856  16235.5  126.838
 17.3836  15634  124.362
 17.5816  15105.9  122.73
 17.7796  14806.1  121.44
 17.9776  14576.3  121.271
 18.1756  14540.9  119.853
 18.3736  14426.8  119.885
 18.5716  14277.8  119.015
 18.7696  14312.9  118.731
 18.9676  14004.8  117.258
 19.1656  13918.7  117.45
 19.3636  13923.5  117.677
 19.5616  13810.5  117.36
 19.7596  13886.8  117.091
 19.9576  14052.9  117.843
 20.1556  14915.4  121.945
 20.3536  14179.8  118.268
 20.5516  13720  116.782
 20.7496  13093.3  113.943
 20.9476  13138.1  113.976
 21.1456  13277.4  114.907
 21.3436  13008.9  113.693
 21.5416  12829.9  112.914
 21.7396  12719.1  112.258
 21.9376  12732.9  112.083
 22.1356  12715.4  112.288
 22.3336  12578.3  111.825
 22.5316  12833.9  113.04
 22.7296  12766.6  112.11
 22.9276  12544.1  111.796
 23.1256  12700.9  111.966
 23.3236  12792.6  112.928
 23.5216  12595  111.713
 23.7196  12465.8  111.302
 23.9176  12309.6  110.147
 24.1156  12265  110.418
 24.3136  11834.3  109.259
 24.5116  11752.1  108.403
 24.7096  11584.8  107.452
 24.9076  11301.2  106.147
 25.1056  11071.8  105.532
 25.3036  11139.3  105.359
 25.5016  11013.4  104.786
 25.6996  11005.4  104.342
 25.8976  10985.3  104.678
 26.0956  10982  104.682
 26.2936  10954.2  104.194
 26.4916  10973.3  104.16
 26.6896  10615.8  102.752
 26.8876  10571.8  102.392
 27.0856  10648.9  102.811
 27.2836  10303.5  101.027
 27.4816  10248.9  100.698
 27.6796  10234.7  100.999
 27.8776  10123.1  100.304
 28.0756  10134.7  100.649
 28.2736  9985.85  99.4937
 28.4716  9831.41  98.7691
 28.6696  9888.42  98.9011
 28.8676  9732.17  98.4609
 29.0656  9655.28  98.0523
 29.2636  9602.83  97.5822
 29.4616  9657.5  98.0375
 29.6596  9585.44  97.239
 29.8576  9587.79  97.938
 30.0556  9517.27  97.4507
 30.2536  9700.34  98.1795
 30.4516  9485.63  96.7435
 30.6496  9432.85  96.1958
 30.8476  9401.33  96.4784
 31.0456  9309.56  95.9704
 31.2436  9447.5  95.9458
 31.4416  9121.5  94.4563
 31.6396  9175.75  94.7842
 31.8376  9081.6  93.8453
 32.0356  9094.6  94.476
 32.2336  9017.16  93.4681
 32.4316  8972.39  93.634
 32.6296  8941.03  93.3076
 32.8276  9081.7  93.8085
 33.0256  8895.3  92.9215
 33.2236  8911.82  93.1536
 33.4216  9001.04  93.3023
 33.6196  8972.72  93.4543
 33.8176  8930.13  93.3962
 34.0156  8812.29  92.3923
 34.2136  8732.08  92.0114
 34.4116  8641.67  91.6833
 34.6096  8500.26  90.8119
 34.8076  8446.63  90.9263
 35.0056  8537.14  91.1048
 35.2036  8587.56  91.5836
 35.4016  8426.5  90.647
 35.5996  8435.68  90.7291
 35.7976  8436.72  91.0044
 35.9956  8382.78  90.3691
 36.1936  8222.78  89.3678
 36.3916  8256.77  89.7264
 36.5896  8237.54  90.5931
 36.7876  8372  90.7301
 36.9856  8082.7  89.1764
 37.1836  8246.59  89.1744
 37.3816  8308.32  89.8736
 37.5796  8141.1  90.6896
 37.7776  7973.08  88.1363
 37.9756  8027.01  88.3154
 38.1736  8120.86  89.0264
 38.3716  7947.54  88.3438
 38.5696  7906.78  88.4977
 38.7676  7742.59  87.0843
 38.9656  7913.15  87.6756
 39.1636  7852.72  87.5983
 39.3616  7945.47  88.0529
 39.5596  7725.23  87.6632
 39.7576  7879.48  87.9013
 39.9556  7934.57  87.8509
 40.1536  7945.79  88.1102
 40.3516  8001.64  88.4294
 40.5496  7916.09  88.2235
 40.7476  8038.28  88.9041
 40.9456  8139.67  89.206
 41.1436  8017.6  88.256
 41.3416  7922.59  88.0675
 41.5396  7861.85  87.5315
 41.7376  7816  87.5438
 41.9356  7776  87.1769
 42.1336  7760.71  87.2452
 42.3316  7813.32  87.7358
 42.5296  7761.87  86.9599
 42.7276  7896.51  87.9582
 42.9256  7856.55  87.6062
 43.1236  7755.75  87.149
 43.3216  7808.19  87.1901
 43.5196  7556.76  85.8432
 43.7176  7668.91  86.8689
 43.9156  7696.14  86.9297
 44.1136  7477.69  85.2434
 44.3116  7657.13  86.2736
 44.5096  7508.53  85.7401
 44.7076  7480.68  85.5116
 44.9056  7452.64  85.2198
 45.1036  7359.62  84.318
 45.3016  7391.13  84.9968
 45.4996  7506.55  85.5942
 45.6976  7254.87  84.321
 45.8956  7344.62  84.6656
 46.0936  7380.97  84.6361
 46.2916  7339.36  84.6201
 46.4896  7280.04  84.312
 46.6876  7279.99  85.018
 46.8856  7232.47  83.9943
 47.0836  7202.6  84.0765
 47.2816  7110.09  83.4098
 47.4796  7166.71  83.8501
 47.6776  7072.37  84.2355
 47.8756  7003.72  82.9954
 48.0736  7016.09  83.5229
 48.2716  6806.09  82.0908
 48.4696  7091.16  83.3919
 48.6676  6955.45  83.1682
 48.8656  6890.09  82.4922
 49.0636  7048.69  83.3927
 49.2616  6810.99  82.0135
 49.4596  6860.84  81.8817
 49.6576  6851.51  82.0571
 49.8556  6780.21  81.6426
 50.0536  6827.69  82.3674
 50.2516  6871.03  82.7638
 50.4496  6761.58  81.7554
 50.6476  6766.79  81.4798
 50.8456  6674.29  81.0018
 51.0436  6600.62  80.9883
 51.2416  6649.63  80.9658
 51.4396  6321.18  79.3245
 51.6376  6489.8  80.2058
 51.8356  6488.03  79.8344
 52.0336  6368.29  79.59
 52.2316  6554.71  81.096
 52.4296  6486.18  80.3611
 52.6276  6361.06  79.6993
 52.8256  6530.51  80.3024
 53.0236  6406.4  80.1878
 53.2216  6296.69  79.5079
 53.4196  6315.65  79.5767
 53.6176  6169.54  79.1201
 53.8156  6357.62  79.9829
 54.0136  6302.22  79.8101
 54.2116  6218.61  78.9449
 54.4096  6273.4  79.3394
 54.6076  6230.47  79.4189
 54.8056  6285.45  79.5536
 55.0036  6168.25  79.0729
 55.2016  6246.12  79.1711
 55.3996  6238.34  79.1623
 55.5976  6154.13  78.8145
 55.7956  6171.74  78.7454
 55.9936  6179.05  78.9153
 56.1916  6181.43  78.9518
 56.3896  6148.97  78.7375
 56.5876  6043.73  78.607
 56.7856  6118.2  78.5756
 56.9836  6052.49  77.945
 57.1816  6048.95  78.2942
 57.3796  6145.66  78.7157
 57.5776  6103.73  78.3654
 57.7756  6027.06  78.5106
 57.9736  6012.66  78.0971
 58.1716  6132.53  79.1101
 58.3696  6009.11  78.0623
 58.5676  6093.51  78.0868
 58.7656  6021.04  78.2878
 58.9636  6259.26  79.8567
 59.1616  6169.12  79.4
 59.3596  6272.83  79.3164
 59.5576  6161.27  78.6649
 59.7556  6077.91  78.5505
 59.9536  6258.49  79.6059
 60.1516  6116.13  79.5494
 60.1996  0.0000000E+00  0.0000000E+00