File: docs/examples/opeando_xrd/IS17_D/Data/IS17_D/17_Da_f00090.xye
# /beamlines/bl04/projects/cycle2025-II/20250340211-lsimonelli/DATA/IS17_D/17_Da_f00090.xye : mythproc.py merge -s 0.006 -l 0.5 -f /beamlines/bl04/inhouse/ff/FlatField/ff_20Nov2024rod8mm60s_17keV.raw -b True -c true -o xye /beamlines/bl04/projects/cycle2025-II/20250340211-lsimonelli/DATA/IS17_D/17_Da_00090.dat
# IsMon = [6770841, 6792112, 6797971]  IsPos = [-1.4999, -2.4884, -3.4988]
# Wave = 0.4962  CalPath /beamlines/bl04/projects/cycle2025-II/20250340211-lsimonelli/DATA/Align/Si_Pos1_25keV_f00001.cal
# Date = 2025-09-24_18:37:05 Dt = 4.8000  Bin = 0.0060  <imon> = 6786975 +/- 11656 (Min/Max) 6770841 / 6797971
# icurr 252.0160  mocoIn 1.7058E-05  mocoOut 0.8057  i15 7.10485e+06  imon 6.78697e+06  i7 6.0000  iEMpd_timer 4.8000  iEMpd_1 3.4510E-08  iEMpd_2 7.7362E-08  iEMpd_3 1.5878E-08  iEMpd_4 4.7251E-08  iEMhp_timer 4.8000  iEMhp_1 4.9309E-06  iEMhp_2 -2.4770E-08  iEMhp_3 -2.4063E-08  iEMhp_4 -2.1106E-08
#      9776
 1.7416  70219.7  265.382
 1.9396  45653  214.257
 2.1376  32329.8  180.3
 2.3356  28904.3  170.122
 2.5336  26798.6  164.385
 2.7316  25218.2  159.45
 2.9296  24195.5  156.348
 3.1276  23748.9  154.489
 3.3256  23397  152.93
 3.5236  25442.8  159.281
 3.7216  23385.1  153.922
 3.9196  22902.6  151.559
 4.1176  22665.2  150.582
 4.3156  24162  155.558
 4.5136  26414  161.651
 4.7116  27706.5  166.718
 4.9096  26931  163.801
 5.1076  26591.9  163.395
 5.3056  27017  164.346
 5.5036  26897.8  163.891
 5.7016  27561.2  165.884
 5.8996  27871.6  166.022
 6.0976  28831.7  170.362
 6.2956  29157.5  170.565
 6.4936  29786.4  171.616
 6.6916  29915.1  172.994
 6.8896  30626  174.894
 7.0876  31688.4  178.631
 7.2856  31602  177.443
 7.4836  32111  178.199
 7.6816  32893  180.895
 7.8796  34216  184.385
 8.0776  35630.4  189.134
 8.2756  37569.3  192.797
 8.4736  38114.2  194.017
 8.6716  37273.2  192.509
 8.8696  37432.7  193.528
 9.0676  36307.7  189.964
 9.2656  35391.8  188.232
 9.4636  35106.9  185.829
 9.6616  34228.7  184.263
 9.8596  32882.8  180.169
 10.0576  31254.5  176.274
 10.2556  30159.5  173.635
 10.4536  29508.7  171.353
 10.6516  28884.5  169.718
 10.8496  27929  166.248
 11.0476  27301.1  164.389
 11.2456  26492.6  162.452
 11.4436  26860.8  162.763
 11.6416  26295.8  161.395
 11.8396  24597.2  156.34
 12.0376  24865.3  156.753
 12.2356  24154.3  154.908
 12.4336  24328.8  155.023
 12.6316  23758  153.51
 12.8296  24204.6  154.542
 13.0276  24639.2  156.061
 13.2256  24671  156.574
 13.4236  24618.7  156.165
 13.6216  24426.9  155.62
 13.8196  24596.4  155.882
 14.0176  23997.4  154.222
 14.2156  23425.7  151.455
 14.4136  22521.3  149.879
 14.6116  22163.5  147.893
 14.8096  21441.4  145.421
 15.0076  20270.2  145.249
 15.2056  20060.7  140.208
 15.4036  19087.4  137.593
 15.6016  18803.8  135.65
 15.7996  18224.8  133.814
 15.9976  17496.3  134.128
 16.1956  16885.4  129.683
 16.3936  16470.2  127.258
 16.5916  16503.6  128.022
 16.7896  16551  128.264
 16.9876  16238.2  128.512
 17.1856  15918.9  125.604
 17.3836  15588.7  124.221
 17.5816  15391.9  123.923
 17.7796  15096  122.666
 17.9776  14952.4  122.836
 18.1756  15186.3  122.478
 18.3736  15001.5  122.239
 18.5716  14685  120.697
 18.7696  14644.6  120.098
 18.9676  14141.5  117.86
 19.1656  14239.6  118.765
 19.3636  14130.8  118.531
 19.5616  13983.5  118.094
 19.7596  14135.3  118.164
 19.9576  14451.9  119.506
 20.1556  14222  119.049
 20.3536  13638.7  115.978
 20.5516  13383.1  115.345
 20.7496  13207.1  114.518
 20.9476  13089.5  113.799
 21.1456  13290.1  114.94
 21.3436  13165.1  114.375
 21.5416  12843.2  112.96
 21.7396  12882.9  112.982
 21.9376  12860.6  112.633
 22.1356  12829.6  112.631
 22.3336  12873  113.07
 22.5316  12713.2  112.448
 22.7296  12858.1  112.436
 22.9276  12783.8  112.799
 23.1256  12952.2  113.002
 23.3236  12618.9  112.169
 23.5216  12627.5  111.882
 23.7196  12462  111.099
 23.9176  12274.6  110.039
 24.1156  12158.5  109.956
 24.3136  11794.2  109.108
 24.5116  11931.5  109.27
 24.7096  11602.2  107.57
 24.9076  11410.6  106.731
 25.1056  11152.3  105.951
 25.3036  11217.5  105.716
 25.5016  11183.5  105.597
 25.6996  11109.2  104.831
 25.8976  10964.2  104.609
 26.0956  11102.7  105.232
 26.2936  11035.9  104.572
 26.4916  11113.7  104.833
 26.6896  10658.9  102.96
 26.8876  10613.6  102.622
 27.0856  10682.6  102.956
 27.2836  10427.8  101.635
 27.4816  10296.8  100.929
 27.6796  10361.8  101.626
 27.8776  10215.7  100.791
 28.0756  10262.1  101.256
 28.2736  10174.9  100.432
 28.4716  9836.7  98.792
 28.6696  9944.2  99.1798
 28.8676  9888.48  99.2496
 29.0656  9757.4  98.5684
 29.2636  9797.29  98.5764
 29.4616  9429.57  96.8196
 29.6596  9809.28  98.3132
 29.8576  9697.58  98.4426
 30.0556  9620.45  97.9174
 30.2536  9759.26  98.4195
 30.4516  9569.4  97.1887
 30.6496  9481.85  96.4668
 30.8476  9420.64  96.5996
 31.0456  9433.84  96.6581
 31.2436  9358  95.5377
 31.4416  9249.59  95.1432
 31.6396  9332.9  95.6258
 31.8376  9272.78  94.8669
 32.0356  9187.38  94.9917
 32.2336  9019.87  93.5367
 32.4316  9066.52  94.1108
 32.6296  9012.21  93.6657
 32.8276  9077.15  93.7759
 33.0256  8987.81  93.4025
 33.2236  8842.92  92.8134
 33.4216  8973.99  93.1497
 33.6196  8955.47  93.3542
 33.8176  8962.53  93.5557
 34.0156  8754.87  92.0924
 34.2136  8766.49  92.2163
 34.4116  8650.4  91.7121
 34.6096  8616.13  91.4168
 34.8076  8595.87  91.7209
 35.0056  8670.26  91.8057
 35.2036  8586.56  91.5947
 35.4016  8572.4  91.4033
 35.5996  8438.49  90.7426
 35.7976  8415.88  90.8968
 35.9956  8491.59  90.9452
 36.1936  8492.41  90.8219
 36.3916  8305.01  89.9792
 36.5896  8275.01  90.8083
 36.7876  8328.5  90.4381
 36.9856  8286.13  90.2393
 37.1836  8224.29  89.0056
 37.3816  8272.98  89.6268
 37.5796  8161.63  90.8028
 37.7776  8164.55  89.2321
 37.9756  8044.86  88.4489
 38.1736  8211.91  89.5456
 38.3716  8026.37  88.8019
 38.5696  7999.54  89.0093
 38.7676  7845.31  87.6925
 38.9656  7972.33  88.0345
 39.1636  7919.51  88.0223
 39.3616  7911.61  87.8693
 39.5596  7887.49  88.5662
 39.7576  7806.12  87.4895
 39.9556  7939.37  87.8749
 40.1536  7982.2  88.3188
 40.3516  7972.93  88.2756
 40.5496  7971.62  88.5199
 40.7476  8026.41  88.836
 40.9456  8027.31  88.5864
 41.1436  7932.03  87.8085
 41.3416  8012.4  88.5458
 41.5396  7959.06  88.0812
 41.7376  7917.81  88.1104
 41.9356  7862.64  87.6653
 42.1336  7951.06  88.3326
 42.3316  7811.55  87.706
 42.5296  7859.97  87.5091
 42.7276  7832.76  87.6015
 42.9256  7836.58  87.4921
 43.1236  7755.27  87.1465
 43.3216  7769.18  86.9766
 43.5196  7748.89  86.9389
 43.7176  7704.86  87.0653
 43.9156  7565.38  86.1389
 44.1136  7575.3  85.7504
 44.3116  7719.24  86.57
 44.5096  7666.6  86.5918
 44.7076  7559.17  85.9119
 44.9056  7469.07  85.3253
 45.1036  7436.16  84.7731
 45.3016  7501  85.639
 45.4996  7309.56  84.4816
 45.6976  7262.03  84.3526
 45.8956  7377.3  84.8834
 46.0936  7352.11  84.7558
 46.2916  7366.93  84.8044
 46.4896  7339.14  84.683
 46.6876  7344.74  85.4255
 46.8856  7168.88  83.633
 47.0836  7167.35  83.8945
 47.2816  7078.59  83.217
 47.4796  7098.35  83.4425
 47.6776  7104.55  84.4256
 47.8756  7004.33  83.0121
 48.0736  7135.97  84.251
 48.2716  6917.63  82.7458
 48.4696  6948.42  82.5504
 48.6676  6857.54  82.5805
 48.8656  6888.06  82.4958
 49.0636  6949.23  82.8299
 49.2616  6834.94  82.1377
 49.4596  6911.98  82.1911
 49.6576  6856.45  82.0738
 49.8556  6896.27  82.3381
 50.0536  6853.17  82.5233
 50.2516  6750.67  82.0384
 50.4496  6715.6  81.473
 50.6476  6722.86  81.2154
 50.8456  6711.81  81.2275
 51.0436  6551.03  80.6413
 51.2416  6598.05  80.6047
 51.4396  6462.12  80.1637
 51.6376  6512.69  80.3082
 51.8356  6616.83  80.5838
 52.0336  6352.57  79.5101
 52.2316  6378.58  80.0125
 52.4296  6600.61  81.0569
 52.6276  6453.44  80.2584
 52.8256  6491.77  80.0906
 53.0236  6401.39  80.1862
 53.2216  6345.09  79.8625
 53.4196  6067.66  78.0271
 53.6176  6179.97  79.213
 53.8156  6263.66  79.4144
 54.0136  6379.62  80.2852
 54.2116  6236.42  79.0804
 54.4096  6350.68  79.8193
 54.6076  6228.87  79.4084
 54.8056  6262.46  79.403
 55.0036  6125.77  78.9153
 55.2016  6194.06  78.9346
 55.3996  6153.8  78.6071
 55.5976  6146.73  78.763
 55.7956  6242.27  79.1807
 55.9936  6171.98  78.8996
 56.1916  6191.19  79.0196
 56.3896  6108.83  78.4679
 56.5876  6087.56  78.8873
 56.7856  6115.62  78.5548
 56.9836  6009.43  77.6824
 57.1816  6119.95  78.7727
 57.3796  6221.47  79.1906
 57.5776  6129.9  78.5381
 57.7756  6159.92  79.3717
 57.9736  6103.14  78.6798
 58.1716  6174.35  79.3663
 58.3696  6116.74  78.7233
 58.5676  6087.52  78.0067
 58.7656  6153.26  79.0988
 58.9636  6331.44  80.2716
 59.1616  6122.25  79.0414
 59.3596  6251.17  79.1243
 59.5576  6192.47  78.809
 59.7556  6178.6  79.1435
 59.9536  6240.92  79.4389
 60.1516  6093.16  79.3447
 60.1996  0.0000000E+00  0.0000000E+00