File: docs/examples/opeando_xrd/IS17_D/Data/IS17_D/17_Da_f00128.xye
# /beamlines/bl04/projects/cycle2025-II/20250340211-lsimonelli/DATA/IS17_D/17_Da_f00128.xye : mythproc.py merge -s 0.006 -l 0.5 -f /beamlines/bl04/inhouse/ff/FlatField/ff_20Nov2024rod8mm60s_17keV.raw -b True -c true -o xye /beamlines/bl04/projects/cycle2025-II/20250340211-lsimonelli/DATA/IS17_D/17_Da_00128.dat
# IsMon = [6747858, 6749250, 6745927]  IsPos = [-1.4999, -2.4883, -3.4988]
# Wave = 0.4962  CalPath /beamlines/bl04/projects/cycle2025-II/20250340211-lsimonelli/DATA/Align/Si_Pos1_25keV_f00001.cal
# Date = 2025-09-25_05:14:56 Dt = 4.8000  Bin = 0.0060  <imon> = 6747678 +/- 1363 (Min/Max) 6745927 / 6749250
# icurr 249.0378  mocoIn 1.7001E-05  mocoOut 0.7970  i15 7.06535e+06  imon 6.74768e+06  i7 5.3333  iEMpd_timer 4.8000  iEMpd_1 3.4576E-08  iEMpd_2 7.8187E-08  iEMpd_3 1.7048E-08  iEMpd_4 4.7058E-08  iEMhp_timer 4.8000  iEMhp_1 4.8672E-06  iEMhp_2 -2.5943E-08  iEMhp_3 -2.4550E-08  iEMhp_4 -2.0723E-08
#      9776
 1.7416  69466.3  263.637
 1.9396  46056.9  214.945
 2.1376  32138.4  179.549
 2.3356  28883.9  169.857
 2.5336  26871.4  164.41
 2.7316  25341.1  159.762
 2.9296  24403.7  156.944
 3.1276  23857.7  154.727
 3.3256  23746.1  154.053
 3.5236  25328.6  158.888
 3.7216  23448  154.129
 3.9196  22779.2  151.148
 4.1176  22643.6  150.465
 4.3156  24052.3  155.246
 4.5136  26348.9  161.462
 4.7116  27301.3  165.495
 4.9096  26560  162.669
 5.1076  26324.4  162.522
 5.3056  26682.5  163.364
 5.5036  26710.8  163.331
 5.7016  27084  164.442
 5.8996  27869.5  166.014
 6.0976  28349.6  168.883
 6.2956  28926.3  169.924
 6.4936  29550.9  170.941
 6.6916  29894  172.931
 6.8896  30574.1  174.745
 7.0876  31912.3  179.263
 7.2856  31692.8  177.7
 7.4836  32051.5  178.118
 7.6816  33056.6  181.342
 7.8796  34703.8  185.803
 8.0776  36040.2  190.335
 8.2756  37922.2  193.836
 8.4736  38510.8  195.139
 8.6716  37867  194.13
 8.8696  37485.1  193.64
 9.0676  37033.9  191.834
 9.2656  36248.8  190.481
 9.4636  35573.5  187.098
 9.6616  35064.1  186.539
 9.8596  33564.6  181.943
 10.0576  31784.3  177.713
 10.2556  30542.9  174.649
 10.4536  29684.2  171.782
 10.6516  29340.1  170.971
 10.8496  28413.3  167.682
 11.0476  27634.6  165.386
 11.2456  26939.8  163.825
 11.4436  27600.4  164.984
 11.6416  26428.7  161.808
 11.8396  25322.1  158.583
 12.0376  25009.1  157.246
 12.2356  24541.8  156.164
 12.4336  24434.7  155.372
 12.6316  24058.6  154.435
 12.8296  24440.6  155.295
 13.0276  25032.1  157.344
 13.2256  24682.8  156.606
 13.4236  24878.8  156.998
 13.6216  24857.7  156.943
 13.8196  24639.4  156.023
 14.0176  24481.6  155.811
 14.2156  23782  152.608
 14.4136  22629.9  150.244
 14.6116  22192  147.99
 14.8096  21957.7  147.193
 15.0076  20486  145.974
 15.2056  20270.4  141.025
 15.4036  19033.4  137.478
 15.6016  18889.5  136.038
 15.7996  18341.5  134.333
 15.9976  17557.3  134.367
 16.1956  17137.2  130.629
 16.3936  16943.6  129.059
 16.5916  16530.2  128.108
 16.7896  16484.9  127.991
 16.9876  16470.2  129.399
 17.1856  16210  126.718
 17.3836  15660.5  124.461
 17.5816  15347.3  123.697
 17.7796  15273.9  123.331
 17.9776  15047.5  123.219
 18.1756  15202  122.549
 18.3736  15086.7  122.592
 18.5716  14855.3  121.398
 18.7696  14707.8  120.363
 18.9676  14399.7  118.898
 19.1656  14412.8  119.512
 19.3636  14334.5  119.393
 19.5616  14224.3  119.11
 19.7596  14450.6  119.448
 19.9576  14970.1  121.629
 20.1556  14111.3  118.616
 20.3536  13723.5  116.345
 20.5516  13538.8  116.014
 20.7496  13388.7  115.305
 20.9476  13262.7  114.512
 21.1456  13430.2  115.572
 21.3436  13037.6  113.816
 21.5416  13059.2  113.913
 21.7396  12895.9  113.045
 21.9376  12957.9  113.074
 22.1356  12852.6  112.741
 22.3336  12969.2  113.544
 22.5316  12780.4  112.812
 22.7296  12889.9  112.65
 22.9276  12756.6  112.746
 23.1256  13042.2  113.474
 23.3236  12827.8  113.091
 23.5216  12719  112.272
 23.7196  12419.2  110.883
 23.9176  12538.8  111.175
 24.1156  12209.3  110.176
 24.3136  12013.4  110.069
 24.5116  12011  109.583
 24.7096  11674.9  107.851
 24.9076  11437.8  106.782
 25.1056  11271.7  106.468
 25.3036  11212.9  105.701
 25.5016  11174.7  105.553
 25.6996  11135.1  104.953
 25.8976  11043.3  104.958
 26.0956  11132.4  105.398
 26.2936  11080.5  104.792
 26.4916  11186.4  105.174
 26.6896  10797.7  103.63
 26.8876  10791.6  103.447
 27.0856  10742.3  103.266
 27.2836  10502.1  102.055
 27.4816  10488.2  101.867
 27.6796  10450.2  102.059
 27.8776  10324.4  101.298
 28.0756  10301.4  101.475
 28.2736  10214.9  100.626
 28.4716  10040.3  99.8118
 28.6696  10128.9  100.093
 28.8676  9953  99.5751
 29.0656  9887.02  99.2304
 29.2636  9918.62  99.1689
 29.4616  9804.02  98.7837
 29.6596  9792.62  98.2891
 29.8576  9697.36  98.4999
 30.0556  9632.42  98.0501
 30.2536  9785.17  98.6117
 30.4516  9532.57  96.9896
 30.6496  9564.57  96.8773
 30.8476  9364.66  96.3008
 31.0456  9481  96.8519
 31.2436  9337.04  95.3855
 31.4416  9381.65  95.7792
 31.6396  9333.35  95.5826
 31.8376  9234.35  94.6177
 32.0356  9160.04  94.8024
 32.2336  9063.1  93.6906
 32.4316  9099.36  94.2509
 32.6296  9021.94  93.7246
 32.8276  9070.23  93.75
 33.0256  9017.33  93.5589
 33.2236  8982.4  93.52
 33.4216  9042.95  93.5244
 33.6196  8959.15  93.3815
 33.8176  8918.96  93.3289
 34.0156  8809.68  92.3794
 34.2136  8890.05  92.8391
 34.4116  8829.62  92.793
 34.6096  8696.94  91.8584
 34.8076  8625.16  91.8852
 35.0056  8686.71  91.894
 35.2036  8554.94  91.4069
 35.4016  8564.29  91.3806
 35.5996  8513.02  91.145
 35.7976  8462.36  91.1517
 35.9956  8618.33  91.6235
 36.1936  8502.49  90.8779
 36.3916  8237.44  89.5818
 36.5896  8310.54  90.9879
 36.7876  8422.52  91.0075
 36.9856  8199.66  89.8203
 37.1836  8267.4  89.29
 37.3816  8318.45  89.9393
 37.5796  8140.28  90.6887
 37.7776  8066.76  88.6543
 37.9756  8118.02  88.8178
 38.1736  8173.83  89.3213
 38.3716  8157.81  89.5145
 38.5696  8091.64  89.5224
 38.7676  7835.74  87.595
 38.9656  7956.69  87.9051
 39.1636  7929.11  88.017
 39.3616  7989.31  88.2848
 39.5596  7836.03  88.2792
 39.7576  7855.09  87.7597
 39.9556  8053.8  88.5107
 40.1536  8027.67  88.5697
 40.3516  8087.11  88.9042
 40.5496  8046.55  88.936
 40.7476  8113.83  89.3072
 40.9456  8058.81  88.7609
 41.1436  7982.91  88.063
 41.3416  7981.87  88.3671
 41.5396  8061.56  88.5725
 41.7376  7991.26  88.5213
 41.9356  7923.97  88.0071
 42.1336  7893.28  87.982
 42.3316  7944.9  88.472
 42.5296  7936.44  87.9368
 42.7276  8002.17  88.5443
 42.9256  7863.92  87.6472
 43.1236  7778.47  87.2762
 43.3216  7893.26  87.6652
 43.5196  7728.76  86.8079
 43.7176  7812.26  87.675
 43.9156  7616.1  86.4813
 44.1136  7636.15  86.1434
 44.3116  7568.23  85.7812
 44.5096  7526.54  85.8459
 44.7076  7521.64  85.7479
 44.9056  7633.17  86.2539
 45.1036  7516.03  85.2151
 45.3016  7419.95  85.1642
 45.4996  7377.47  84.8627
 45.6976  7322.16  84.7195
 45.8956  7405.6  85.0058
 46.0936  7366  84.7249
 46.2916  7343.07  84.6305
 46.4896  7340.11  84.6384
 46.6876  7312.46  85.1959
 46.8856  7233.6  83.9948
 47.0836  7275.52  84.5004
 47.2816  7151.77  83.6521
 47.4796  7179.09  83.9184
 47.6776  7002.43  83.813
 47.8756  7103.82  83.5897
 48.0736  7142.1  84.2821
 48.2716  6996.79  83.2674
 48.4696  7092.96  83.4184
 48.6676  6940.38  83.0788
 48.8656  7139.14  83.9814
 49.0636  7034.73  83.3156
 49.2616  6835.82  82.0589
 49.4596  6876.44  82.12
 49.6576  6950.37  82.6341
 49.8556  6910.14  82.4182
 50.0536  6815.94  82.2991
 50.2516  6832.48  82.5302
 50.4496  6788.96  81.9245
 50.6476  6820.72  81.803
 50.8456  6832.06  81.9491
 51.0436  6658.83  81.3507
 51.2416  6716.7  81.3833
 51.4396  6596.37  81.0429
 51.6376  6577.75  80.7442
 51.8356  6629.91  80.6977
 52.0336  6518.63  80.5293
 52.2316  6551.26  81.0827
 52.4296  6655.15  81.4055
 52.6276  6523.19  80.7096
 52.8256  6526.83  80.2959
 53.0236  6409.95  80.2022
 53.2216  6327.19  79.7164
 53.4196  6352.55  79.7946
 53.6176  6467.73  80.9997
 53.8156  6412.7  80.3231
 54.0136  6406.85  80.4722
 54.2116  6392.35  80.0398
 54.4096  6343.09  79.7813
 54.6076  6287.17  79.779
 54.8056  6188.21  78.9375
 55.0036  6285.69  79.9453
 55.2016  6201.63  78.9551
 55.3996  6239.76  79.1755
 55.5976  6242.4  79.3691
 55.7956  6151.97  78.6093
 55.9936  6206.51  79.0962
 56.1916  6184.39  78.9771
 56.3896  6262.73  79.4671
 56.5876  6182.06  79.504
 56.7856  6236.53  79.3371
 56.9836  6185.59  78.7901
 57.1816  6183.73  79.1601
 57.3796  6236.57  79.295
 57.5776  6268.49  79.4267
 57.7756  6157.42  79.3502
 57.9736  6169.68  79.1095
 58.1716  6199.35  79.5428
 58.3696  6151.1  78.9796
 58.5676  6127.9  78.307
 58.7656  6170.65  79.257
 58.9636  6251.76  79.804
 59.1616  6160.37  79.3499
 59.3596  6403.41  80.1562
 59.5576  6421.17  80.3265
 59.7556  6169.54  79.1597
 59.9536  6168.71  79.0522
 60.1516  6278.59  80.6187
 60.1996  0.0000000E+00  0.0000000E+00