File: docs/examples/opeando_xrd/IS17_D/Data/IS17_D/17_Da_f00025.xye
# /beamlines/bl04/projects/cycle2025-II/20250340211-lsimonelli/DATA/IS17_D/17_Da_f00025.xye : mythproc.py merge -s 0.006 -l 0.5 -f /beamlines/bl04/inhouse/ff/FlatField/ff_20Nov2024rod8mm60s_17keV.raw -b True -c true -o xye /beamlines/bl04/projects/cycle2025-II/20250340211-lsimonelli/DATA/IS17_D/17_Da_00025.dat
# IsMon = [6754108, 6757118, 6756496]  IsPos = [-1.5000, -2.4885, -3.4988]
# Wave = 0.4962  CalPath /beamlines/bl04/projects/cycle2025-II/20250340211-lsimonelli/DATA/Align/Si_Pos1_25keV_f00001.cal
# Date = 2025-09-24_00:31:23 Dt = 4.8000  Bin = 0.0060  <imon> = 6755907 +/- 1297 (Min/Max) 6754108 / 6757118
# icurr 249.8289  mocoIn 1.7052E-05  mocoOut 0.8002  i15 7.06943e+06  imon 6.75591e+06  i7 5.3333  iEMpd_timer 4.8000  iEMpd_1 3.5546E-08  iEMpd_2 7.8169E-08  iEMpd_3 1.7289E-08  iEMpd_4 4.8480E-08  iEMhp_timer 4.8000  iEMhp_1 4.8816E-06  iEMhp_2 -2.5444E-08  iEMhp_3 -2.5524E-08  iEMhp_4 -2.1649E-08
#      9776
 1.7416  69386.7  263.524
 1.9396  44855.1  212.153
 2.1376  31414.5  177.541
 2.3356  28110.3  167.592
 2.5336  26670.5  163.818
 2.7316  24748.6  157.896
 2.9296  23415.6  153.748
 3.1276  22958.5  151.797
 3.3256  22701  150.613
 3.5236  24781.8  157.323
 3.7216  22463.6  150.858
 3.9196  22069.8  148.773
 4.1176  21951.8  148.153
 4.3156  23074.2  152.051
 4.5136  25765.7  159.667
 4.7116  26767.6  163.871
 4.9096  26228.9  161.651
 5.1076  25903.4  161.222
 5.3056  26085.4  161.519
 5.5036  25799.2  160.61
 5.7016  26393.4  162.332
 5.8996  26825.1  162.87
 6.0976  27464  166.232
 6.2956  28039.1  167.298
 6.4936  28720.7  168.524
 6.6916  29107.5  170.641
 6.8896  29752.4  172.386
 7.0876  30896  176.307
 7.2856  30503  174.331
 7.4836  30856.5  174.68
 7.6816  31611.4  177.336
 7.8796  33031.5  181.255
 8.0776  35161.9  187.986
 8.2756  36117.4  189.152
 8.4736  36811.6  190.767
 8.6716  35779.8  188.7
 8.8696  36102  190.037
 9.0676  35223.1  187.079
 9.2656  33934.2  184.298
 9.4636  33490.5  181.527
 9.6616  32757.5  180.288
 9.8596  31638.3  176.657
 10.0576  30021.4  172.724
 10.2556  29092.3  170.47
 10.4536  29009.4  169.833
 10.6516  29059.2  170.148
 10.8496  26819.4  162.914
 11.0476  26148.8  160.834
 11.2456  25997.8  160.945
 11.4436  25315.3  158.004
 11.6416  25152.7  157.851
 11.8396  23752  153.595
 12.0376  23752.5  153.214
 12.2356  23447.6  152.667
 12.4336  23265.9  151.611
 12.6316  23016.6  151.055
 12.8296  23156.9  151.16
 13.0276  23793.5  153.398
 13.2256  23720  153.527
 13.4236  23521.8  152.646
 13.6216  23348  152.11
 13.8196  23449.5  152.209
 14.0176  23183.3  151.622
 14.2156  22661.8  148.973
 14.4136  21792.9  147.443
 14.6116  21225.3  144.73
 14.8096  20700.4  142.913
 15.0076  19627.7  142.91
 15.2056  19093  136.857
 15.4036  18199.9  134.428
 15.6016  17940.7  132.566
 15.7996  17565.4  131.45
 15.9976  16885.1  131.778
 16.1956  16292.7  127.368
 16.3936  16050.2  125.608
 16.5916  15876.2  125.542
 16.7896  15807.8  125.333
 16.9876  15510.6  125.576
 17.1856  15427.7  123.635
 17.3836  14846.7  121.174
 17.5816  14597.8  120.647
 17.7796  14483.3  120.102
 17.9776  14422  120.631
 18.1756  14617.3  120.159
 18.3736  14709.9  121.047
 18.5716  14020.7  117.936
 18.7696  14025.5  117.533
 18.9676  13614.1  115.611
 19.1656  13579.4  116.012
 19.3636  13450.2  115.652
 19.5616  13295.6  115.153
 19.7596  13586.2  115.817
 19.9576  13861  117.041
 20.1556  13580.1  116.356
 20.3536  13206.2  114.138
 20.5516  12979.2  113.592
 20.7496  12661.7  112.048
 20.9476  12674.8  111.949
 21.1456  12822.8  112.922
 21.3436  12532.2  111.59
 21.5416  12544.7  111.645
 21.7396  12260.4  110.226
 21.9376  12280.6  110.074
 22.1356  12299.2  110.441
 22.3336  12310.5  110.606
 22.5316  12324.9  110.767
 22.7296  12164.5  109.43
 22.9276  12200.4  110.253
 23.1256  12415.1  110.694
 23.3236  12233.4  110.442
 23.5216  12084.3  109.434
 23.7196  12021.9  109.313
 23.9176  11889.1  108.261
 24.1156  11862.2  108.597
 24.3136  11565.5  108.008
 24.5116  11491.1  107.194
 24.7096  11099.7  105.174
 24.9076  11062.5  105.02
 25.1056  10998.2  104.899
 25.3036  10741.4  103.455
 25.5016  10650.5  103.053
 25.6996  10689.6  102.832
 25.8976  10688.5  103.254
 26.0956  10670.9  103.19
 26.2936  10637.4  102.679
 26.4916  10619.9  102.478
 26.6896  10327.1  101.345
 26.8876  10181.6  100.486
 27.0856  10340.4  101.274
 27.2836  10099.9  100.025
 27.4816  10046.1  99.7001
 27.6796  9992.46  99.7979
 27.8776  9894.72  99.1694
 28.0756  9913.5  99.5425
 28.2736  9870.86  98.9179
 28.4716  9742.13  98.3207
 28.6696  9614.82  97.5244
 28.8676  9554.67  97.5562
 29.0656  9463.51  97.0735
 29.2636  9419.59  96.5655
 29.4616  9246.51  95.9265
 29.6596  9381.68  96.1976
 29.8576  9315.26  96.5317
 30.0556  9342.47  96.5446
 30.2536  9345.68  96.3655
 30.4516  9282.75  95.7075
 30.6496  9115.23  94.5724
 30.8476  9084.26  94.8425
 31.0456  9057.52  94.6712
 31.2436  9169.62  94.5308
 31.4416  8836.17  92.9619
 31.6396  8950.36  93.6081
 31.8376  9030.98  93.5761
 32.0356  8920.36  93.5609
 32.2336  8840.23  92.5434
 32.4316  8808.14  92.7696
 32.6296  8672.64  91.828
 32.8276  8737.21  92.0076
 33.0256  8553.6  91.121
 33.2236  8626.29  91.649
 33.4216  8655.58  91.497
 33.6196  8625.02  91.6219
 33.8176  8534.74  91.3034
 34.0156  8500.67  90.7475
 34.2136  8363.04  90.0466
 34.4116  8309.35  89.9001
 34.6096  8387.79  90.2062
 34.8076  8323.55  90.2554
 35.0056  8375.09  90.2381
 35.2036  8197.66  89.4784
 35.4016  8244.27  89.659
 35.5996  8178.37  89.3367
 35.7976  8006.31  88.6506
 35.9956  8141.74  89.0516
 36.1936  8160.95  89.0321
 36.3916  8014  88.398
 36.5896  7982.78  89.6405
 36.7876  8049.02  88.9607
 36.9856  7901.43  88.1686
 37.1836  8117.53  88.4712
 37.3816  7986.2  88.1131
 37.5796  7868.95  89.1518
 37.7776  7808.19  87.2258
 37.9756  7702.88  86.5166
 38.1736  7951.32  88.0994
 38.3716  7744.54  87.216
 38.5696  7789.05  87.8286
 38.7676  7545.85  85.971
 38.9656  7608.2  85.9687
 39.1636  7584.79  86.0633
 39.3616  7671.32  86.5145
 39.5596  7517.44  86.4652
 39.7576  7596.92  86.3105
 39.9556  7690.89  86.4925
 40.1536  7742.03  86.9794
 40.3516  7754.45  87.0589
 40.5496  7721.12  86.9168
 40.7476  7807.13  87.6108
 40.9456  7737.64  86.9767
 41.1436  7760.12  86.8309
 41.3416  7654.64  86.564
 41.5396  7605.15  86.0981
 41.7376  7679.49  86.7799
 41.9356  7676.43  86.624
 42.1336  7539.54  85.9938
 42.3316  7564.21  86.3246
 42.5296  7685.2  86.5348
 42.7276  7657.53  86.6139
 42.9256  7644.55  86.4134
 43.1236  7425.5  85.2734
 43.3216  7500.05  85.5544
 43.5196  7405.78  84.9772
 43.7176  7402.26  85.3455
 43.9156  7330.78  84.8406
 44.1136  7317.84  84.3253
 44.3116  7354.61  84.5424
 44.5096  7178.81  83.8337
 44.7076  7239.98  84.1223
 44.9056  7232.58  83.9542
 45.1036  7137.01  83.0383
 45.3016  7198.55  83.8852
 45.4996  7040.16  82.8988
 45.6976  6992.17  82.7855
 45.8956  7119.24  83.354
 46.0936  7188.29  83.5212
 46.2916  7179.45  83.6903
 46.4896  7155.61  83.5848
 46.6876  7120.83  84.0817
 46.8856  6951  82.3462
 47.0836  6868.22  82.0996
 47.2816  6898.41  82.1493
 47.4796  6931.74  82.4558
 47.6776  6836.45  82.8184
 47.8756  6808.77  81.8384
 48.0736  6887.65  82.763
 48.2716  6748.49  81.7404
 48.4696  6842.37  81.9092
 48.6676  6824.54  82.3803
 48.8656  6775.1  81.8059
 49.0636  6704.38  81.33
 49.2616  6597.65  80.7203
 49.4596  6632.54  80.5014
 49.6576  6593.95  80.4881
 49.8556  6616.46  80.6504
 50.0536  6637.35  81.2147
 50.2516  6565.58  80.8755
 50.4496  6510.27  80.2248
 50.6476  6505.03  79.8859
 50.8456  6539.56  80.171
 51.0436  6410.33  79.8121
 51.2416  6322.33  78.9504
 51.4396  6261.45  78.9513
 51.6376  6371.1  79.4667
 51.8356  6312.09  78.7379
 52.0336  6222.18  78.6773
 52.2316  6255.9  79.2261
 52.4296  6210.4  78.6459
 52.6276  6185.2  78.5892
 52.8256  6295.41  78.8565
 53.0236  6163.65  78.652
 53.2216  6060.48  77.9966
 53.4196  6107.62  78.2544
 53.6176  6089.16  78.5998
 53.8156  6071.86  78.1711
 54.0136  6192  79.1132
 54.2116  6100.82  78.1963
 54.4096  6132.74  78.4449
 54.6076  5992.31  77.8747
 54.8056  6020.9  77.8632
 55.0036  5879.29  77.1999
 55.2016  6017.68  77.7094
 55.3996  6002.55  77.6499
 55.5976  5955.55  77.5249
 55.7956  5945.68  77.2865
 55.9936  5923.03  77.2751
 56.1916  5995.02  77.7573
 56.3896  5960.13  77.5181
 56.5876  5911.44  77.7407
 56.7856  5886.27  77.0583
 56.9836  5806.38  76.3378
 57.1816  5937.51  77.5687
 57.3796  5955.81  77.491
 57.5776  5873.44  76.8865
 57.7756  5837.11  77.2642
 57.9736  5804.38  76.7332
 58.1716  5951.47  77.9357
 58.3696  5919.27  77.4756
 58.5676  5957.87  77.2107
 58.7656  5910.05  77.555
 58.9636  5976.35  78.0291
 59.1616  5942.57  77.908
 59.3596  6023.46  77.7289
 59.5576  6002.89  77.6527
 59.7556  5904.47  77.4271
 59.9536  6002.68  77.9676
 60.1516  5990.42  78.7332
 60.1996  0.0000000E+00  0.0000000E+00