File: docs/examples/opeando_xrd/IS17_D/Data/IS17_D/17_Da_f00041.xye
# /beamlines/bl04/projects/cycle2025-II/20250340211-lsimonelli/DATA/IS17_D/17_Da_f00041.xye : mythproc.py merge -s 0.006 -l 0.5 -f /beamlines/bl04/inhouse/ff/FlatField/ff_20Nov2024rod8mm60s_17keV.raw -b True -c true -o xye /beamlines/bl04/projects/cycle2025-II/20250340211-lsimonelli/DATA/IS17_D/17_Da_00041.dat
# IsMon = [6793209, 6793578, 6790916]  IsPos = [-1.4999, -2.4885, -3.4986]
# Wave = 0.4962  CalPath /beamlines/bl04/projects/cycle2025-II/20250340211-lsimonelli/DATA/Align/Si_Pos1_25keV_f00001.cal
# Date = 2025-09-24_04:58:17 Dt = 4.8000  Bin = 0.0060  <imon> = 6792568 +/- 1178 (Min/Max) 6790916 / 6793578
# icurr 253.0347  mocoIn 1.7260E-05  mocoOut 0.8095  i15 7.10803e+06  imon 6.79257e+06  i7 5.6667  iEMpd_timer 4.8000  iEMpd_1 3.5614E-08  iEMpd_2 7.7420E-08  iEMpd_3 1.6464E-08  iEMpd_4 5.0023E-08  iEMhp_timer 4.8000  iEMhp_1 4.9432E-06  iEMhp_2 -2.4352E-08  iEMhp_3 -2.3836E-08  iEMhp_4 -2.0521E-08
#      9776
 1.7416  71166.4  266.834
 1.9396  47200.7  217.582
 2.1376  33507  183.326
 2.3356  30195.2  173.664
 2.5336  28259.2  168.596
 2.7316  26304.2  162.77
 2.9296  25458.3  160.301
 3.1276  24493.7  156.783
 3.3256  24041.8  154.992
 3.5236  25770.7  160.421
 3.7216  23594.2  154.605
 3.9196  23175.9  152.457
 4.1176  22926.2  151.397
 4.3156  24185.2  155.678
 4.5136  26478.6  161.861
 4.7116  27413.3  165.833
 4.9096  26973.1  163.933
 5.1076  26633.8  163.473
 5.3056  26792.3  163.581
 5.5036  26394.8  162.389
 5.7016  26895.1  163.868
 5.8996  27306  164.334
 6.0976  28141.4  168.26
 6.2956  28644  169.098
 6.4936  29392.5  170.484
 6.6916  29840.1  172.775
 6.8896  30529.6  174.622
 7.0876  31691.2  178.64
 7.2856  31413.5  176.916
 7.4836  31715.3  177.097
 7.6816  32599.6  180.089
 7.8796  33729.4  183.173
 8.0776  35452.6  188.779
 8.2756  37138.7  191.832
 8.4736  37584.3  192.779
 8.6716  36872.5  191.571
 8.8696  36910.6  192.155
 9.0676  35799  188.601
 9.2656  34545.4  185.945
 9.4636  34251.6  183.589
 9.6616  33531.8  182.416
 9.8596  32132.7  178.019
 10.0576  30416  173.849
 10.2556  29448.4  171.492
 10.4536  28308.9  167.753
 10.6516  27676  166.055
 10.8496  26794.9  162.827
 11.0476  26007  160.395
 11.2456  25300.2  158.763
 11.4436  25402.4  158.265
 11.6416  26901.8  163.249
 11.8396  24507.7  156.011
 12.0376  24186.1  154.611
 12.2356  23731.5  153.591
 12.4336  23567.9  152.585
 12.6316  23326.4  152.06
 12.8296  23712.4  152.964
 13.0276  24028.6  154.164
 13.2256  24346.4  155.536
 13.4236  24438.5  155.599
 13.6216  23976.7  154.138
 13.8196  24177.5  154.553
 14.0176  23750.3  153.471
 14.2156  23052.4  150.249
 14.4136  21973.9  148.049
 14.6116  21799.9  146.676
 14.8096  21238.5  144.766
 15.0076  20050.7  144.447
 15.2056  19454  138.158
 15.4036  18626.2  136.002
 15.6016  18323.3  133.989
 15.7996  17959.5  132.933
 15.9976  17317.9  133.453
 16.1956  16593.3  128.537
 16.3936  16428.3  127.078
 16.5916  16140.9  126.588
 16.7896  15939.6  125.853
 16.9876  15866.2  127.004
 17.1856  15906.3  125.533
 17.3836  15427.6  123.525
 17.5816  14750.7  121.266
 17.7796  14439.3  119.916
 17.9776  14168.4  119.568
 18.1756  14297.3  118.836
 18.3736  14166.9  118.798
 18.5716  13891.5  117.388
 18.7696  13943.9  117.194
 18.9676  13650.5  115.757
 19.1656  13716.8  116.599
 19.3636  13652.8  116.519
 19.5616  13513.2  116.092
 19.7596  13573.6  115.759
 19.9576  13844  116.969
 20.1556  14556.5  120.472
 20.3536  14024  117.612
 20.5516  13430.8  115.553
 20.7496  13023.5  113.726
 20.9476  12831.4  112.629
 21.1456  12976.3  113.601
 21.3436  12693  112.303
 21.5416  12605.9  111.922
 21.7396  12434.2  110.997
 21.9376  12333.3  110.323
 22.1356  12591.7  111.471
 22.3336  12557.3  111.719
 22.5316  12481.2  111.481
 22.7296  12614.6  111.446
 22.9276  12487.1  111.55
 23.1256  12635.4  111.685
 23.3236  12378.8  111.092
 23.5216  12549.6  111.521
 23.7196  12302.2  110.364
 23.9176  12212.5  109.712
 24.1156  12188  110.077
 24.3136  11600.5  108.162
 24.5116  11803.6  108.633
 24.7096  11254.4  105.894
 24.9076  11210.6  105.715
 25.1056  11038.3  105.087
 25.3036  10970.6  104.551
 25.5016  10923.8  104.367
 25.6996  10918.4  103.922
 25.8976  10799.4  103.787
 26.0956  10746.3  103.554
 26.2936  10591.6  102.454
 26.4916  10727.4  102.995
 26.6896  10465.3  102.019
 26.8876  10559.4  102.327
 27.0856  10414.3  101.637
 27.2836  10272.8  101.039
 27.4816  10090.8  99.9085
 27.6796  10035.1  100.01
 27.8776  9931.01  99.3496
 28.0756  9997.02  99.9612
 28.2736  9900.01  99.0646
 28.4716  9832.05  98.774
 28.6696  9845.68  98.6892
 28.8676  9656.73  98.0806
 29.0656  9603.08  97.7875
 29.2636  9584.08  97.3996
 29.4616  9562.76  97.5623
 29.6596  9316.98  95.8739
 29.8576  9155.88  95.7124
 30.0556  9356.53  96.6377
 30.2536  9463.59  96.9803
 30.4516  9368.91  96.1518
 30.6496  9400.03  96.0378
 30.8476  9097.85  94.9172
 31.0456  9254.37  95.6817
 31.2436  9232.43  94.8443
 31.4416  9107.49  94.3734
 31.6396  9152.15  94.6493
 31.8376  9096.33  93.9031
 32.0356  9024.04  94.0828
 32.2336  8979.09  93.2575
 32.4316  8867.58  93.0799
 32.6296  8848.87  92.7548
 32.8276  8848.23  92.5988
 33.0256  8714.17  91.9652
 33.2236  8711.34  92.0948
 33.4216  8673.3  91.5973
 33.6196  8843.96  92.7793
 33.8176  8698.27  92.1776
 34.0156  8650.41  91.5355
 34.2136  8653.12  91.5932
 34.4116  8492.17  90.8898
 34.6096  8598.75  91.3368
 34.8076  8452.27  90.9573
 35.0056  8462.53  90.701
 35.2036  8485.14  91.0273
 35.4016  8465.97  90.8573
 35.5996  8243.84  89.6904
 35.7976  8289.97  90.212
 35.9956  8424.86  90.5918
 36.1936  8262.24  89.5844
 36.3916  8222.52  89.5388
 36.5896  8135.81  90.4951
 36.7876  8135.09  89.441
 36.9856  8079.84  89.1662
 37.1836  8211.56  88.9914
 37.3816  8094.97  88.7197
 37.5796  8000.96  89.905
 37.7776  7915.89  87.8214
 37.9756  7908.19  87.6633
 38.1736  8010.63  88.4256
 38.3716  7917.61  88.1849
 38.5696  7886.19  88.38
 38.7676  7611.67  86.3374
 38.9656  7792.76  86.998
 39.1636  7838.54  87.4852
 39.3616  7786.26  87.1537
 39.5596  7775.04  87.9345
 39.7576  7746.34  87.1585
 39.9556  7783.51  87.0099
 40.1536  7851.86  87.5912
 40.3516  7930.14  88.1215
 40.5496  7817.94  87.4536
 40.7476  7869.51  87.9624
 40.9456  8024.39  88.5677
 41.1436  7972.61  88.0096
 41.3416  7826.34  87.5315
 41.5396  7770.66  87.03
 41.7376  7803.8  87.4803
 41.9356  7708.02  86.8021
 42.1336  7807.02  87.498
 42.3316  7738.53  87.318
 42.5296  7718.83  86.7228
 42.7276  7673.12  86.7054
 42.9256  7717.03  86.8248
 43.1236  7589.14  86.2064
 43.3216  7726.24  86.8362
 43.5196  7595  86.0558
 43.7176  7594.41  86.4448
 43.9156  7516.02  85.9099
 44.1136  7423.63  84.9406
 44.3116  7513.18  85.4695
 44.5096  7542.08  85.9345
 44.7076  7566.05  86.0036
 44.9056  7430.71  85.1004
 45.1036  7363.54  84.3444
 45.3016  7261.37  84.2496
 45.4996  7229.6  84.006
 45.6976  7166.87  83.8162
 45.8956  7255.51  84.1406
 46.0936  7264.34  84.1954
 46.2916  7146.93  83.4935
 46.4896  7256.68  84.1557
 46.6876  7193.2  84.4939
 46.8856  7164.26  83.714
 47.0836  7051.78  83.1882
 47.2816  7001.35  82.7651
 47.4796  7027.18  83.0267
 47.6776  6842.66  82.8436
 47.8756  7019.75  83.1022
 48.0736  7030.86  83.5952
 48.2716  6833.32  82.2526
 48.4696  6909.7  82.3145
 48.6676  6941.02  83.0837
 48.8656  6818.07  82.0724
 49.0636  6942.29  82.7649
 49.2616  6725.01  81.4943
 49.4596  6806.87  81.5663
 49.6576  6760.68  81.5093
 49.8556  6756.26  81.4984
 50.0536  6707.43  81.6438
 50.2516  6705.01  81.7291
 50.4496  6698  81.3751
 50.6476  6619.6  80.5833
 50.8456  6642.61  80.8134
 51.0436  6515.37  80.4712
 51.2416  6506.57  80.099
 51.4396  6390.83  79.769
 51.6376  6472.51  80.0998
 51.8356  6453.49  79.6208
 52.0336  6329.25  79.3501
 52.2316  6394.64  80.1022
 52.4296  6470.37  80.2716
 52.6276  6340.86  79.5736
 52.8256  6367.93  79.3216
 53.0236  6284.5  79.4129
 53.2216  6234.77  79.1312
 53.4196  6176.61  78.6884
 53.6176  6055.39  78.3755
 53.8156  6175.38  78.8283
 54.0136  6249.68  79.4823
 54.2116  6140.09  78.4429
 54.4096  6193.54  78.8323
 54.6076  6162.19  78.9822
 54.8056  6178.67  78.8766
 55.0036  6178.77  79.2658
 55.2016  6162.04  78.7076
 55.3996  6082.78  78.1702
 55.5976  6104.85  78.4976
 55.7956  6118.1  78.4037
 55.9936  6072.06  78.236
 56.1916  6083.44  78.3307
 56.3896  6145.51  78.7222
 56.5876  6006.1  78.3627
 56.7856  6012.4  77.8861
 56.9836  5985.15  77.5039
 57.1816  6035.14  78.2002
 57.3796  6088.01  78.3183
 57.5776  6028.19  77.8814
 57.7756  6004.34  78.3664
 57.9736  6103.73  78.6868
 58.1716  6058.22  78.6333
 58.3696  5880.52  77.2254
 58.5676  6051.53  77.8217
 58.7656  6074.8  78.6347
 58.9636  6185.76  79.3903
 59.1616  6055.61  78.6702
 59.3596  6053.97  77.9388
 59.5576  6118.38  78.4091
 59.7556  6038.42  78.3134
 59.9536  6254.53  79.5995
 60.1516  5938.28  78.4027
 60.1996  0.0000000E+00  0.0000000E+00