File: docs/examples/opeando_xrd/IS17_D/Data/IS17_D/17_Db_f00062.xye
# /beamlines/bl04/projects/cycle2025-II/20250340211-lsimonelli/DATA/IS17_D/17_Db_f00062.xye : mythproc.py merge -s 0.006 -l 0.5 -f /beamlines/bl04/inhouse/ff/FlatField/ff_20Nov2024rod8mm60s_17keV.raw -b True -c true -o xye /beamlines/bl04/projects/cycle2025-II/20250340211-lsimonelli/DATA/IS17_D/17_Db_00062.dat
# IsMon = [6788587, 6791389, 6790928]  IsPos = [-1.4999, -2.4884, -3.4988]
# Wave = 0.4962  CalPath /beamlines/bl04/projects/cycle2025-II/20250340211-lsimonelli/DATA/Align/Si_Pos1_25keV_f00001.cal
# Date = 2025-09-24_10:58:53 Dt = 4.8000  Bin = 0.0060  <imon> = 6790301 +/- 1227 (Min/Max) 6788587 / 6791389
# icurr 252.8157  mocoIn 1.7257E-05  mocoOut 0.8086  i15 7.11183e+06  imon 6.7903e+06  i7 7.0000  iEMpd_timer 4.8000  iEMpd_1 3.3628E-08  iEMpd_2 7.7901E-08  iEMpd_3 1.6879E-08  iEMpd_4 4.9883E-08  iEMhp_timer 4.8000  iEMhp_1 4.9394E-06  iEMhp_2 -2.5652E-08  iEMhp_3 -2.4450E-08  iEMhp_4 -2.1407E-08
#      9776
 1.7416  70956.2  266.486
 1.9396  49075.4  221.905
 2.1376  35866.8  189.704
 2.3356  32105.2  179.104
 2.5336  30072.7  173.952
 2.7316  27256.2  165.707
 2.9296  25918  161.733
 3.1276  25685.2  160.553
 3.3256  24743.5  157.239
 3.5236  26372.9  162.126
 3.7216  24289.4  156.856
 3.9196  23864.5  154.676
 4.1176  23653.4  153.781
 4.3156  24792.3  157.613
 4.5136  27171.7  163.96
 4.7116  28212.6  168.224
 4.9096  27339.2  165.034
 5.1076  27193.3  165.184
 5.3056  27138.4  164.731
 5.5036  26975  164.143
 5.7016  27312.7  165.132
 5.8996  27977.5  166.355
 6.0976  28721  169.972
 6.2956  28979.6  170.073
 6.4936  29584.5  171.024
 6.6916  30084.8  173.471
 6.8896  30921.2  175.706
 7.0876  31899.9  179.225
 7.2856  31669.8  177.62
 7.4836  32127.8  178.246
 7.6816  33142  181.538
 7.8796  33752.9  183.21
 8.0776  35483.5  188.846
 8.2756  37086.7  191.677
 8.4736  37757.6  193.211
 8.6716  37004.1  191.895
 8.8696  37896  194.724
 9.0676  36863.1  191.38
 9.2656  35719.8  189.084
 9.4636  34820.9  185.136
 9.6616  34131.3  184.026
 9.8596  33418.7  181.541
 10.0576  31448.5  176.774
 10.2556  30653.4  174.975
 10.4536  30293.1  173.543
 10.6516  29722.9  172.112
 10.8496  27935.3  166.269
 11.0476  27015.4  163.527
 11.2456  26794  163.383
 11.4436  27205.2  163.8
 11.6416  26034.7  160.578
 11.8396  25089.5  157.839
 12.0376  24544.7  155.759
 12.2356  24145  154.898
 12.4336  24126.4  154.388
 12.6316  24105.2  154.592
 12.8296  24162.1  154.37
 13.0276  24506.4  155.683
 13.2256  24480.9  155.969
 13.4236  24488.1  155.758
 13.6216  24753.5  156.595
 13.8196  27096.6  163.301
 14.0176  23859  153.814
 14.2156  23439.1  151.491
 14.4136  22295.2  149.127
 14.6116  22085.5  147.609
 14.8096  21353  145.126
 15.0076  20350.6  145.578
 15.2056  19494.6  138.286
 15.4036  18430.8  135.281
 15.6016  18101.1  133.161
 15.7996  17583.4  131.516
 15.9976  17435.8  133.843
 16.1956  17313.6  131.267
 16.3936  16837.2  128.636
 16.5916  16608.1  128.402
 16.7896  16686.7  128.76
 16.9876  16408.7  129.142
 17.1856  16156.8  126.521
 17.3836  15762.9  124.882
 17.5816  15428.9  124.034
 17.7796  15205.1  123.063
 17.9776  14925.9  122.707
 18.1756  15200  122.554
 18.3736  14948.5  122.013
 18.5716  14469.3  119.805
 18.7696  14463.1  119.337
 18.9676  14328.6  118.581
 19.1656  13952.4  117.599
 19.3636  13967.9  117.865
 19.5616  13887.9  117.696
 19.7596  14324  118.925
 19.9576  14810.2  120.974
 20.1556  13812.2  117.34
 20.3536  13747.9  116.455
 20.5516  13483.1  115.77
 20.7496  13150.3  114.268
 20.9476  13254.8  114.476
 21.1456  13147.1  114.338
 21.3436  12987.9  113.598
 21.5416  12889.8  113.179
 21.7396  12688  112.133
 21.9376  12618.8  111.597
 22.1356  12718.9  112.159
 22.3336  12354.4  110.82
 22.5316  12399.9  111.114
 22.7296  12413.2  110.545
 22.9276  12277.2  110.602
 23.1256  12572.5  111.402
 23.3236  12594.8  112.081
 23.5216  12670.4  112.04
 23.7196  12515.4  111.319
 23.9176  12666.5  111.736
 24.1156  12362.9  110.848
 24.3136  12167.2  110.779
 24.5116  12069.9  109.854
 24.7096  11758.3  108.232
 24.9076  11635.4  107.701
 25.1056  11280.5  106.508
 25.3036  11152.8  105.406
 25.5016  11183.6  105.596
 25.6996  11176.5  105.147
 25.8976  11052.3  104.991
 26.0956  10917.5  104.365
 26.2936  10933.2  104.09
 26.4916  11219.6  105.314
 26.6896  10745.7  103.366
 26.8876  10717.5  103.09
 27.0856  10561.4  102.394
 27.2836  10373.8  101.373
 27.4816  10423.9  101.547
 27.6796  10347.4  101.547
 27.8776  10480.5  102.058
 28.0756  10176.6  100.85
 28.2736  10186.2  100.478
 28.4716  9927.25  99.247
 28.6696  9975.41  99.3303
 28.8676  9964.6  99.6322
 29.0656  9717.91  98.3641
 29.2636  9778.78  98.4651
 29.4616  9326.4  96.3399
 29.6596  9502.3  96.8132
 29.8576  9364.97  96.7911
 30.0556  9457.42  97.148
 30.2536  9469.78  97.0031
 30.4516  9605.09  97.3392
 30.6496  9622.22  97.1583
 30.8476  9534.91  97.1699
 31.0456  9484.25  96.8709
 31.2436  9697.37  97.1981
 31.4416  9343.52  95.5958
 31.6396  9593.42  96.9042
 31.8376  9396.7  95.4417
 32.0356  9398.43  96.0207
 32.2336  9351.66  95.184
 32.4316  9039.57  93.9745
 32.6296  8993.17  93.5725
 32.8276  9021.18  93.5006
 33.0256  8819.56  92.503
 33.2236  9099.48  94.1207
 33.4216  8988.27  93.2291
 33.6196  8832.52  92.7046
 33.8176  8802.84  92.7189
 34.0156  8714.8  91.8842
 34.2136  8786.8  92.2967
 34.4116  8586.09  91.3894
 34.6096  8598.19  91.3296
 34.8076  8483.61  91.1404
 35.0056  8552.62  91.1813
 35.2036  8716.73  92.2825
 35.4016  8538.81  91.2456
 35.5996  8443.7  90.7634
 35.7976  8428.61  90.9613
 35.9956  8642.98  91.7554
 36.1936  8523.99  90.9679
 36.3916  8394.31  90.4772
 36.5896  8389.38  91.4402
 36.7876  8189.53  89.73
 36.9856  8127.14  89.4085
 37.1836  8117.92  88.472
 37.3816  8101.72  88.7484
 37.5796  8047.22  90.1722
 37.7776  8275.88  89.7995
 37.9756  8219.3  89.3776
 38.1736  8217.83  89.5644
 38.3716  8127.93  89.3416
 38.5696  7938.36  88.6597
 38.7676  7943.85  88.2023
 38.9656  8120.71  88.8112
 39.1636  8026.3  88.5626
 39.3616  8021.63  88.4712
 39.5596  7844.72  88.3206
 39.7576  7819.44  87.573
 39.9556  7931.92  87.836
 40.1536  7988.83  88.347
 40.3516  8003.77  88.4418
 40.5496  8027.23  88.8176
 40.7476  8056.39  88.9921
 40.9456  8044  88.681
 41.1436  8143.95  88.9521
 41.3416  7801.02  87.387
 41.5396  7854.91  87.5001
 41.7376  7857.83  87.7712
 41.9356  7906.85  87.9068
 42.1336  8110.5  89.177
 42.3316  7809.49  87.7015
 42.5296  7893.23  87.6972
 42.7276  7852.58  87.7041
 42.9256  7889.97  87.7847
 43.1236  7784.72  87.3058
 43.3216  7826.59  87.2865
 43.5196  7739.67  86.856
 43.7176  7748.23  87.3002
 43.9156  7663.01  86.7394
 44.1136  7548.53  85.6453
 44.3116  7651.36  86.2379
 44.5096  7568.04  86.0791
 44.7076  7574.8  86.0464
 44.9056  7718.78  86.7347
 45.1036  7674.63  86.1084
 45.3016  7642  86.4301
 45.4996  7644.73  86.3811
 45.6976  7502.59  85.7536
 45.8956  7602.71  86.1357
 46.0936  7673.22  86.5346
 46.2916  7684.22  86.5713
 46.4896  7636.9  86.3389
 46.6876  7598.84  86.8542
 46.8856  7518.59  85.6403
 47.0836  7499.64  85.7826
 47.2816  7353.11  84.8209
 47.4796  7439.02  85.4303
 47.6776  7325.86  85.7218
 47.8756  7504.37  85.9219
 48.0736  7489.79  86.3072
 48.2716  7406.32  85.6343
 48.4696  7462.55  85.5389
 48.6676  7430.29  85.9587
 48.8656  7497.65  86.0733
 49.0636  7420.22  85.5633
 49.2616  7324.74  85.0483
 49.4596  7432.16  85.2263
 49.6576  7280.07  84.5739
 49.8556  7388.25  85.225
 50.0536  7397.82  85.7358
 50.2516  7362.86  85.6763
 50.4496  7324.23  85.0921
 50.6476  7332.06  84.8136
 50.8456  7379.29  85.1567
 51.0436  7208.15  84.6319
 51.2416  7153.9  83.9793
 51.4396  6963.53  83.2619
 51.6376  7016.43  83.3942
 51.8356  7076.98  83.3743
 52.0336  7067.72  83.8408
 52.2316  6990.24  83.7355
 52.4296  6992.96  83.4602
 52.6276  6924.17  83.1526
 52.8256  7121.27  83.8844
 53.0236  7078.08  84.2772
 53.2216  7030.1  84.0322
 53.4196  7029.19  83.9286
 53.6176  6977.34  84.129
 53.8156  7106.36  84.5632
 54.0136  6753.32  82.6089
 54.2116  6877.51  82.9889
 54.4096  6685.69  81.9016
 54.6076  6664.44  82.1049
 54.8056  6581.59  81.3826
 55.0036  6599.55  81.9074
 55.2016  6663.45  81.8074
 55.3996  6443.72  80.4313
 55.5976  6519.73  81.1025
 55.7956  6508.62  80.84
 55.9936  6591.88  81.4799
 56.1916  6417.74  80.4464
 56.3896  6372.56  80.1328
 56.5876  6355.07  80.5841
 56.7856  6287.22  79.6536
 56.9836  6509.57  80.8173
 57.1816  6412.27  80.5744
 57.3796  6302.74  79.6959
 57.5776  6305.74  79.6073
 57.7756  6264.17  80.0228
 57.9736  6137.9  78.8593
 58.1716  6232.15  79.7454
 58.3696  5957.64  77.728
 58.5676  6043.5  77.7578
 58.7656  6050.19  78.4779
 58.9636  6066.06  78.6076
 59.1616  5980.59  78.1868
 59.3596  5958.13  77.306
 59.5576  6224.82  79.0749
 59.7556  5972.39  77.8709
 59.9536  5988.83  77.8773
 60.1516  6015.51  78.8977
 60.1996  0.0000000E+00  0.0000000E+00