File: docs/examples/opeando_xrd/IS17_D/Data/IS17_D/17_Da_f00094.xye
# /beamlines/bl04/projects/cycle2025-II/20250340211-lsimonelli/DATA/IS17_D/17_Da_f00094.xye : mythproc.py merge -s 0.006 -l 0.5 -f /beamlines/bl04/inhouse/ff/FlatField/ff_20Nov2024rod8mm60s_17keV.raw -b True -c true -o xye /beamlines/bl04/projects/cycle2025-II/20250340211-lsimonelli/DATA/IS17_D/17_Da_00094.dat
# IsMon = [6776911, 6775111, 6775817]  IsPos = [-1.4999, -2.4884, -3.4988]
# Wave = 0.4962  CalPath /beamlines/bl04/projects/cycle2025-II/20250340211-lsimonelli/DATA/Align/Si_Pos1_25keV_f00001.cal
# Date = 2025-09-24_19:45:51 Dt = 4.8000  Bin = 0.0060  <imon> = 6775946 +/- 741 (Min/Max) 6775111 / 6776911
# icurr 251.2186  mocoIn 1.7137E-05  mocoOut 0.8035  i15 7.09218e+06  imon 6.77595e+06  i7 6.3333  iEMpd_timer 4.8000  iEMpd_1 3.4266E-08  iEMpd_2 7.7661E-08  iEMpd_3 1.6290E-08  iEMpd_4 4.6097E-08  iEMhp_timer 4.8000  iEMhp_1 4.9071E-06  iEMhp_2 -2.5870E-08  iEMhp_3 -2.3734E-08  iEMhp_4 -2.0331E-08
#      9776
 1.7416  70189.7  264.991
 1.9396  45975.4  214.739
 2.1376  32388.2  180.235
 2.3356  29321.9  171.131
 2.5336  27045.2  164.931
 2.7316  25390.2  159.928
 2.9296  24492.8  157.24
 3.1276  23988.7  155.155
 3.3256  23615.9  153.625
 3.5236  25601.6  159.758
 3.7216  23220.6  153.379
 3.9196  23046.2  152.033
 4.1176  22704.7  150.659
 4.3156  24098.4  155.389
 4.5136  26246.6  161.155
 4.7116  27457.9  165.97
 4.9096  26888  163.672
 5.1076  26602.5  163.374
 5.3056  26952.8  164.186
 5.5036  26864.2  163.807
 5.7016  27219.7  164.854
 5.8996  27791.4  165.79
 6.0976  28336.6  168.84
 6.2956  29097.5  170.433
 6.4936  29463.2  170.694
 6.6916  29839.5  172.775
 6.8896  30788.6  175.359
 7.0876  31597.2  178.375
 7.2856  31438.2  176.984
 7.4836  31916.8  177.661
 7.6816  32824  180.703
 7.8796  34120.6  184.243
 8.0776  35444.6  188.762
 8.2756  37221.1  192.035
 8.4736  37754.7  193.221
 8.6716  37089.2  192.139
 8.8696  36835.6  191.94
 9.0676  35937.6  188.955
 9.2656  35122.3  187.484
 9.4636  34737.4  184.867
 9.6616  34050.3  183.805
 9.8596  32941.1  180.254
 10.0576  30962.5  175.424
 10.2556  29837  172.633
 10.4536  29079.4  170.034
 10.6516  28462.9  168.406
 10.8496  27724.4  165.635
 11.0476  27128.9  163.869
 11.2456  26318.1  161.938
 11.4436  26520.2  161.723
 11.6416  26290.9  161.385
 11.8396  24605.3  156.319
 12.0376  24388  155.271
 12.2356  23955  154.293
 12.4336  23941  153.792
 12.6316  23675.8  153.197
 12.8296  24007.8  153.914
 13.0276  24621.8  156.052
 13.2256  24488.6  155.995
 13.4236  24310  155.189
 13.6216  24370.9  155.396
 13.8196  24421.2  155.331
 14.0176  23964.1  154.155
 14.2156  23344.7  151.199
 14.4136  22468.8  149.711
 14.6116  22030.6  147.45
 14.8096  21534.7  145.766
 15.0076  20131.8  144.723
 15.2056  20019.8  140.15
 15.4036  19130.9  137.845
 15.6016  18770.2  135.613
 15.7996  18135.9  133.571
 15.9976  17362.8  133.618
 16.1956  16819  129.398
 16.3936  16602.5  127.742
 16.5916  16218.5  126.884
 16.7896  16189.3  126.829
 16.9876  16193.4  128.314
 17.1856  15884.6  125.455
 17.3836  15410.7  123.452
 17.5816  15191  123.069
 17.7796  15011.3  122.269
 17.9776  14697.5  121.773
 18.1756  14949.2  121.521
 18.3736  14771.9  121.312
 18.5716  14432.4  119.655
 18.7696  14439.6  119.258
 18.9676  14113.8  117.708
 19.1656  14023.2  117.898
 19.3636  14062  118.259
 19.5616  13761.8  117.151
 19.7596  14082  117.908
 19.9576  14276.6  118.779
 20.1556  14428.1  119.938
 20.3536  13795.2  116.652
 20.5516  13413.6  115.478
 20.7496  13025.8  113.734
 20.9476  12969.2  113.235
 21.1456  13296.1  114.993
 21.3436  12913.7  113.274
 21.5416  12737.7  112.501
 21.7396  12725.7  112.299
 21.9376  12844.3  112.582
 22.1356  12823.6  112.614
 22.3336  12689.8  112.326
 22.5316  12841.7  113.087
 22.7296  12674  111.712
 22.9276  12672.5  112.375
 23.1256  12859.3  112.665
 23.3236  12599.9  112.074
 23.5216  12534.3  111.44
 23.7196  12369.3  110.659
 23.9176  12532  111.128
 24.1156  12171.1  109.992
 24.3136  11728.2  108.756
 24.5116  11752.9  108.405
 24.7096  11603  107.53
 24.9076  11213  105.727
 25.1056  11047.3  105.408
 25.3036  11071.9  105.038
 25.5016  11004.3  104.748
 25.6996  10940.6  104.03
 25.8976  10918.7  104.357
 26.0956  10901.4  104.3
 26.2936  11005.4  104.434
 26.4916  11011.5  104.353
 26.6896  10498.2  102.182
 26.8876  10550.3  102.281
 27.0856  10591.4  102.533
 27.2836  10457.7  101.783
 27.4816  10216.4  100.534
 27.6796  10208.6  100.866
 27.8776  10128.7  100.332
 28.0756  10132.5  100.638
 28.2736  10147.8  100.298
 28.4716  9971.84  99.4732
 28.6696  9735.42  98.1364
 28.8676  9837.95  98.9938
 29.0656  9697.09  98.2615
 29.2636  9696.06  98.0528
 29.4616  9532.79  97.4104
 29.6596  9631.97  97.4825
 29.8576  9434.08  97.1553
 30.0556  9489.5  97.3202
 30.2536  9589.95  97.6228
 30.4516  9561.41  97.1268
 30.6496  9350.41  95.7784
 30.8476  9351.59  96.2249
 31.0456  9196.82  95.3818
 31.2436  9207.13  94.7105
 31.4416  9048.86  94.0729
 31.6396  9187.4  94.8375
 31.8376  9213.66  94.5215
 32.0356  9130.23  94.6563
 32.2336  8963.03  93.1769
 32.4316  8966.26  93.6032
 32.6296  8990.4  93.5671
 32.8276  9025.05  93.5185
 33.0256  8945.08  93.1757
 33.2236  8842.67  92.7878
 33.4216  9018.47  93.3948
 33.6196  8882.69  92.9858
 33.8176  8801.43  92.7214
 34.0156  8673.03  91.661
 34.2136  8644.65  91.5465
 34.4116  8669.37  91.8361
 34.6096  8635.67  91.5308
 34.8076  8461.65  91.0107
 35.0056  8506.21  90.943
 35.2036  8471.43  90.9564
 35.4016  8416.99  90.5975
 35.5996  8436.87  90.7366
 35.7976  8289.77  90.2167
 35.9956  8428.42  90.6068
 36.1936  8253.87  89.5361
 36.3916  8307.33  90.0049
 36.5896  8253.8  90.6769
 36.7876  8219.2  89.9053
 36.9856  8272.87  90.2254
 37.1836  8189.47  88.8727
 37.3816  8221.68  89.4117
 37.5796  8086.58  90.3839
 37.7776  7990.96  88.2284
 37.9756  7936.3  87.8067
 38.1736  8074.13  88.7712
 38.3716  8087.53  89.1199
 38.5696  8002.6  89.0287
 38.7676  7726.11  86.9877
 38.9656  7717  86.5783
 39.1636  7812.17  87.376
 39.3616  7910.58  87.8562
 39.5596  7777.19  87.9353
 39.7576  7808.8  87.5061
 39.9556  7904.87  87.6844
 40.1536  7996.14  88.3925
 40.3516  8064.15  88.7801
 40.5496  7968.53  88.5138
 40.7476  8038.44  88.9092
 40.9456  8032.14  88.6108
 41.1436  7947.37  87.8694
 41.3416  7927.4  88.0947
 41.5396  7900.92  87.7589
 41.7376  7864.15  87.8154
 41.9356  7828.06  87.4716
 42.1336  7840.38  87.6872
 42.3316  7804.9  87.6886
 42.5296  7810.44  87.2326
 42.7276  7781.29  87.3118
 42.9256  7777.98  87.1634
 43.1236  7663.53  86.6294
 43.3216  7763.89  86.945
 43.5196  7590.88  86.0363
 43.7176  7664.19  86.8403
 43.9156  7619.73  86.4987
 44.1136  7423.01  84.9384
 44.3116  7554.94  85.7004
 44.5096  7513.37  85.7761
 44.7076  7530.37  85.8018
 44.9056  7523.74  85.6243
 45.1036  7426.93  84.7025
 45.3016  7293.53  84.4311
 45.4996  7260.91  84.1821
 45.6976  7301.71  84.5955
 45.8956  7332.2  84.5885
 46.0936  7267.48  84.2125
 46.2916  7274.91  84.2425
 46.4896  7294.31  84.3774
 46.6876  7221.14  84.6685
 46.8856  7157.77  83.5649
 47.0836  7076.47  83.3296
 47.2816  7023.88  82.9056
 47.4796  7071.98  83.2909
 47.6776  6959.08  83.5566
 47.8756  6920.01  82.5119
 48.0736  7065.75  83.8234
 48.2716  6877.42  82.5212
 48.4696  6966.34  82.6482
 48.6676  6980.82  83.314
 48.8656  6995.54  83.123
 49.0636  6877.48  82.3724
 49.2616  6771.68  81.7706
 49.4596  6844.97  81.7893
 49.6576  6718.16  81.2511
 49.8556  6678.04  81.025
 50.0536  6775.1  82.0507
 50.2516  6830.87  82.5184
 50.4496  6747.14  81.6702
 50.6476  6762.24  81.4475
 50.8456  6663.14  80.9393
 51.0436  6558.96  80.7395
 51.2416  6549.13  80.3559
 51.4396  6409.57  79.8832
 51.6376  6563.6  80.6694
 51.8356  6543.76  80.1729
 52.0336  6373.81  79.6248
 52.2316  6500.62  80.7617
 52.4296  6369.46  79.6375
 52.6276  6471.86  80.3875
 52.8256  6397.94  79.4873
 53.0236  6252.89  79.2135
 53.2216  6207.67  78.9634
 53.4196  6199.08  78.8306
 53.6176  6250.03  79.6265
 53.8156  6300.14  79.6202
 54.0136  6209.6  79.2245
 54.2116  6197.16  78.8076
 54.4096  6286.03  79.4237
 54.6076  6207.87  79.2709
 54.8056  6185.63  78.9212
 55.0036  6135.55  78.9887
 55.2016  6088.84  78.2364
 55.3996  6144.53  78.5641
 55.5976  6204.24  79.1367
 55.7956  6111.69  78.3587
 55.9936  6067.11  78.2009
 56.1916  6171.8  78.897
 56.3896  6163.53  78.8336
 56.5876  5966.04  78.1006
 56.7856  6081.21  78.3426
 56.9836  6018.48  77.7195
 57.1816  5997.84  77.9575
 57.3796  6118.02  78.5401
 57.5776  6094.95  78.317
 57.7756  6001.06  78.3371
 57.9736  6033.49  78.2337
 58.1716  6013.29  78.3392
 58.3696  6006.09  78.0507
 58.5676  6019.99  77.618
 58.7656  6037.56  78.3988
 58.9636  6218.66  79.6013
 59.1616  6042.1  78.588
 59.3596  6148.25  78.5345
 59.5576  6101.08  78.2894
 59.7556  6178.89  79.2101
 59.9536  6081.32  78.4808
 60.1516  6039.37  79.0585
 60.1996  0.0000000E+00  0.0000000E+00