File: docs/examples/opeando_xrd/IS17_D/Data/IS17_D/17_Db_f00070.xye
# /beamlines/bl04/projects/cycle2025-II/20250340211-lsimonelli/DATA/IS17_D/17_Db_f00070.xye : mythproc.py merge -s 0.006 -l 0.5 -f /beamlines/bl04/inhouse/ff/FlatField/ff_20Nov2024rod8mm60s_17keV.raw -b True -c true -o xye /beamlines/bl04/projects/cycle2025-II/20250340211-lsimonelli/DATA/IS17_D/17_Db_00070.dat
# IsMon = [6754991, 6756831, 6755977]  IsPos = [-1.4999, -2.4884, -3.4988]
# Wave = 0.4962  CalPath /beamlines/bl04/projects/cycle2025-II/20250340211-lsimonelli/DATA/Align/Si_Pos1_25keV_f00001.cal
# Date = 2025-09-24_13:11:12 Dt = 4.8000  Bin = 0.0060  <imon> = 6755933 +/- 752 (Min/Max) 6754991 / 6756831
# icurr 249.8481  mocoIn 1.7049E-05  mocoOut 0.7993  i15 7.07591e+06  imon 6.75593e+06  i7 4.6667  iEMpd_timer 4.8000  iEMpd_1 3.4524E-08  iEMpd_2 7.8039E-08  iEMpd_3 1.6730E-08  iEMpd_4 4.8367E-08  iEMhp_timer 4.8000  iEMhp_1 4.8799E-06  iEMhp_2 -2.4151E-08  iEMhp_3 -2.4352E-08  iEMhp_4 -2.1582E-08
#      9776
 1.7416  68712.2  262.224
 1.9396  47074  217.317
 2.1376  34482.3  185.996
 2.3356  30848.1  175.552
 2.5336  30110.1  174.05
 2.7316  26501.8  163.393
 2.9296  24992.9  158.828
 3.1276  24720.9  157.51
 3.3256  23823  154.285
 3.5236  25276.4  158.725
 3.7216  23409.3  153.993
 3.9196  23094.5  152.161
 4.1176  22821.4  151.044
 4.3156  23722  154.174
 4.5136  26525.3  162.003
 4.7116  27330.1  165.568
 4.9096  26499.8  162.48
 5.1076  26300.8  162.446
 5.3056  26146.4  161.691
 5.5036  25865.7  160.732
 5.7016  26297  162.03
 5.8996  26896.9  163.108
 6.0976  27760.9  167.1
 6.2956  27801.7  166.586
 6.4936  28533.5  167.955
 6.6916  28965.6  170.215
 6.8896  30178.4  173.567
 7.0876  30736.2  175.917
 7.2856  30581.8  174.544
 7.4836  31459.1  176.369
 7.6816  32057.1  178.552
 7.8796  33105.3  181.452
 8.0776  36271.1  190.938
 8.2756  36793.6  190.924
 8.4736  36762.9  190.653
 8.6716  36296.6  190.06
 8.8696  37584.7  193.92
 9.0676  36849.1  191.34
 9.2656  34751.8  186.487
 9.4636  34173.5  183.409
 9.6616  33547  182.446
 9.8596  32547.8  179.153
 10.0576  30691  174.628
 10.2556  29935.6  172.918
 10.4536  32856.6  180.733
 10.6516  32595.3  180.235
 10.8496  27225.6  164.14
 11.0476  27182.8  164.032
 11.2456  28954  169.847
 11.4436  26454.7  161.523
 11.6416  25402.3  158.61
 11.8396  24530.6  156.075
 12.0376  23827.9  153.47
 12.2356  24952.9  157.465
 12.4336  24228  154.708
 12.6316  23455.7  152.486
 12.8296  23989.6  153.829
 13.0276  23925.3  153.824
 13.2256  23897.5  154.096
 13.4236  24050.3  154.363
 13.6216  24291.3  155.132
 13.8196  26916.4  162.75
 14.0176  23520.2  152.723
 14.2156  22907  149.753
 14.4136  21666.2  147.005
 14.6116  21470.2  145.556
 14.8096  20688.5  142.858
 15.0076  20086.1  144.628
 15.2056  18864.5  136.04
 15.4036  18062.7  133.93
 15.6016  17727.1  131.782
 15.7996  17495.6  131.195
 15.9976  16999.4  132.184
 16.1956  16550.9  128.342
 16.3936  16330.5  126.687
 16.5916  16280.4  127.125
 16.7896  16234.7  127.006
 16.9876  15980.2  127.441
 17.1856  15823.3  125.209
 17.3836  15114  122.282
 17.5816  15062  122.55
 17.7796  15060.2  122.473
 17.9776  14866.5  122.459
 18.1756  15785.3  124.891
 18.3736  15482  124.174
 18.5716  14325.2  119.209
 18.7696  14315.7  118.736
 18.9676  14068.6  117.501
 19.1656  13855.3  117.193
 19.3636  13649.2  116.509
 19.5616  13748.3  117.102
 19.7596  14065.1  117.842
 19.9576  14406.5  119.303
 20.1556  13362.2  115.408
 20.3536  13261.8  114.376
 20.5516  13017.9  113.752
 20.7496  12926.4  113.291
 20.9476  13303  114.687
 21.1456  13158.5  114.388
 21.3436  12719.6  112.414
 21.5416  12702.2  112.353
 21.7396  12494.6  111.276
 21.9376  12453.6  110.867
 22.1356  12736.8  112.239
 22.3336  12371.5  110.9
 22.5316  12383.4  111.046
 22.7296  12122.6  109.251
 22.9276  12001.5  109.356
 23.1256  12589.3  111.482
 23.3236  12567.3  111.958
 23.5216  12361.7  110.671
 23.7196  12305.7  110.381
 23.9176  12252.6  109.896
 24.1156  12084.5  109.592
 24.3136  11951.7  109.788
 24.5116  12006.9  109.562
 24.7096  11721.7  108.06
 24.9076  11608  107.572
 25.1056  11265.7  106.429
 25.3036  10923.9  104.326
 25.5016  11046.5  104.951
 25.6996  10802.7  103.371
 25.8976  11127.1  105.352
 26.0956  10960.4  104.565
 26.2936  10792.5  103.427
 26.4916  11002.8  104.287
 26.6896  10597  102.645
 26.8876  10607.3  102.557
 27.0856  10475.5  101.978
 27.2836  10278.9  100.905
 27.4816  10321.5  101.051
 27.6796  10100  100.322
 27.8776  10606.3  102.666
 28.0756  10034.9  100.15
 28.2736  10062.7  99.8651
 28.4716  9837.37  98.7985
 28.6696  9830.43  98.6073
 28.8676  9659.22  98.092
 29.0656  9637.27  97.9593
 29.2636  9617.01  97.6488
 29.4616  9275.15  96.0766
 29.6596  9282.46  95.6907
 29.8576  9096.97  95.3973
 30.0556  9357.59  96.6372
 30.2536  9303.27  96.1462
 30.4516  9434.8  96.4746
 30.6496  9506.16  96.5589
 30.8476  9366.95  96.2958
 31.0456  9361.64  96.2444
 31.2436  9311.04  95.245
 31.4416  9285.28  95.2944
 31.6396  9591.45  96.8918
 31.8376  9317.01  95.0323
 32.0356  9217.81  95.0856
 32.2336  9088.9  93.83
 32.4316  8819.85  92.8234
 32.6296  8812.45  92.624
 32.8276  8873.15  92.7329
 33.0256  8868.5  92.7791
 33.2236  8882.15  92.9827
 33.4216  8702.56  91.7359
 33.6196  8635.15  91.6718
 33.8176  8770.2  92.5535
 34.0156  8670.36  91.6493
 34.2136  8753.54  92.1073
 34.4116  8503.02  90.9476
 34.6096  8535.87  91.0007
 34.8076  8399.14  90.6844
 35.0056  8504.39  90.9185
 35.2036  8669.55  92.0295
 35.4016  8283.93  89.8688
 35.5996  8357.52  90.3002
 35.7976  8260.79  90.0508
 35.9956  8496.69  90.978
 36.1936  8379.25  90.2084
 36.3916  8183.61  89.3325
 36.5896  8283.79  90.8593
 36.7876  8027.47  88.8443
 36.9856  7914.56  88.2402
 37.1836  7904.66  87.3073
 37.3816  7869.1  87.4691
 37.5796  7972.97  89.7509
 37.7776  8134.11  89.0182
 37.9756  8143.07  88.96
 38.1736  8278.4  89.8854
 38.3716  8031.8  88.8019
 38.5696  7815.4  87.9772
 38.7676  7698.4  86.8258
 38.9656  7988.05  88.0809
 39.1636  7900.87  87.8672
 39.3616  7978.92  88.234
 39.5596  7724.53  87.6452
 39.7576  7845.69  87.7188
 39.9556  7902.44  87.6733
 40.1536  7906.3  87.8938
 40.3516  7984.85  88.332
 40.5496  7895.86  88.0902
 40.7476  7935.56  88.3229
 40.9456  7987.67  88.3697
 41.1436  8070.05  88.5474
 41.3416  7826.01  87.5271
 41.5396  7866.61  87.5613
 41.7376  7798.76  87.4448
 41.9356  7751.13  87.0291
 42.1336  8004.84  88.5932
 42.3316  7748.08  87.3614
 42.5296  7821.73  87.2966
 42.7276  7752.52  87.1449
 42.9256  7663.91  86.5237
 43.1236  7716.28  86.918
 43.3216  7795.3  87.114
 43.5196  7684.36  86.5508
 43.7176  7637.07  86.6679
 43.9156  7508.63  85.8664
 44.1136  7508.19  85.4183
 44.3116  7482.57  85.2855
 44.5096  7374.27  84.9686
 44.7076  7475.68  85.4834
 44.9056  7557.99  85.8254
 45.1036  7610.09  85.7411
 45.3016  7478.65  85.4953
 45.4996  7610.75  86.1911
 45.6976  7500.06  85.7397
 45.8956  7497.93  85.5358
 46.0936  7596.07  86.1001
 46.2916  7452.22  85.2524
 46.4896  7558.15  85.8826
 46.6876  7494.3  86.2447
 46.8856  7395.26  84.9403
 47.0836  7325.36  84.7831
 47.2816  7180.21  83.8187
 47.4796  7387.26  85.1226
 47.6776  7301.85  85.5842
 47.8756  7322.26  84.8755
 48.0736  7282.14  85.0993
 48.2716  7266.12  84.8207
 48.4696  7302.79  84.6249
 48.6676  7371.8  85.6129
 48.8656  7392.23  85.4576
 49.0636  7457.42  85.7862
 49.2616  7152.73  84.0466
 49.4596  7201.13  83.8882
 49.6576  7203.54  84.1319
 49.8556  7224.19  84.2734
 50.0536  7207.95  84.6205
 50.2516  7321.67  85.4167
 50.4496  7218.18  84.4742
 50.6476  7293.45  84.5838
 50.8456  7207.53  84.1722
 51.0436  6895.44  82.7801
 51.2416  7040.37  83.3144
 51.4396  6863.85  82.6665
 51.6376  7011.88  83.3626
 51.8356  6924.67  82.4738
 52.0336  6915.62  82.9389
 52.2316  6964.32  83.5819
 52.4296  6840.23  82.5445
 52.6276  6890.21  82.9526
 52.8256  6924.91  82.7176
 53.0236  6962.7  83.5859
 53.2216  7000.15  83.8494
 53.4196  6818.5  82.6567
 53.6176  6902.61  83.6799
 53.8156  6863.51  83.1028
 54.0136  6602.68  81.6707
 54.2116  6720.36  82.036
 54.4096  6607.5  81.4155
 54.6076  6549.96  81.4016
 54.8056  6527.71  81.0466
 55.0036  6468.35  81.0857
 55.2016  6688.69  81.9649
 55.3996  6328.14  79.7029
 55.5976  6413.49  80.4292
 55.7956  6344.23  79.8169
 55.9936  6427.68  80.4567
 56.1916  6350.86  80.0112
 56.3896  6193.25  79.0053
 56.5876  6249.91  79.9064
 56.7856  6279.55  79.6042
 56.9836  6339.11  79.7417
 57.1816  6348.94  80.1649
 57.3796  6230.16  79.2415
 57.5776  6250.68  79.2682
 57.7756  6201.02  79.6228
 57.9736  6089.09  78.549
 58.1716  6106.28  78.9342
 58.3696  5919.86  77.4833
 58.5676  5978.45  77.3346
 58.7656  5978.23  78.0102
 58.9636  5849.93  77.1976
 59.1616  6028.2  78.4952
 59.3596  5982.49  77.4657
 59.5576  5911.8  77.0644
 59.7556  5854.72  77.1033
 59.9536  5966.63  77.7362
 60.1516  5886.55  78.0508
 60.1996  0.0000000E+00  0.0000000E+00