File: docs/examples/opeando_xrd/IS17_D/Data/IS17_D/17_Da_f00115.xye
# /beamlines/bl04/projects/cycle2025-II/20250340211-lsimonelli/DATA/IS17_D/17_Da_f00115.xye : mythproc.py merge -s 0.006 -l 0.5 -f /beamlines/bl04/inhouse/ff/FlatField/ff_20Nov2024rod8mm60s_17keV.raw -b True -c true -o xye /beamlines/bl04/projects/cycle2025-II/20250340211-lsimonelli/DATA/IS17_D/17_Da_00115.dat
# IsMon = [6762332, 6783697, 6799111]  IsPos = [-1.5000, -2.4884, -3.4988]
# Wave = 0.4962  CalPath /beamlines/bl04/projects/cycle2025-II/20250340211-lsimonelli/DATA/Align/Si_Pos1_25keV_f00001.cal
# Date = 2025-09-25_01:37:00 Dt = 4.8000  Bin = 0.0060  <imon> = 6781713 +/- 15080 (Min/Max) 6762332 / 6799111
# icurr 251.2100  mocoIn 1.7146E-05  mocoOut 0.8034  i15 7.09757e+06  imon 6.78171e+06  i7 4.3333  iEMpd_timer 4.8000  iEMpd_1 3.5221E-08  iEMpd_2 7.9495E-08  iEMpd_3 1.7424E-08  iEMpd_4 4.7934E-08  iEMhp_timer 4.8000  iEMhp_1 4.9206E-06  iEMhp_2 -2.4750E-08  iEMhp_3 -2.3813E-08  iEMhp_4 -2.0728E-08
#      9776
 1.7416  70608.4  266.179
 1.9396  46558.1  216.42
 2.1376  33513  183.612
 2.3356  30257.5  174.101
 2.5336  28225.2  168.744
 2.7316  27088.8  165.292
 2.9296  25997.3  162.104
 3.1276  25276.1  159.409
 3.3256  24841  157.616
 3.5236  26324.3  162.056
 3.7216  24242  156.716
 3.9196  23610.7  153.886
 4.1176  23328.6  152.778
 4.3156  24680.1  157.203
 4.5136  27025.3  163.521
 4.7116  28142.8  168.027
 4.9096  27438.8  165.343
 5.1076  26949.3  164.497
 5.3056  27179.4  164.822
 5.5036  27113.7  164.551
 5.7016  27444.7  165.531
 5.8996  28100.9  166.709
 6.0976  28781.9  170.23
 6.2956  29468.4  171.464
 6.4936  30200.7  172.812
 6.6916  30511.2  174.708
 6.8896  31506.3  177.394
 7.0876  32686.2  181.401
 7.2856  32282  179.345
 7.4836  32704.6  179.842
 7.6816  33904.7  183.654
 7.8796  35050.7  186.596
 8.0776  36580.2  191.617
 8.2756  38739  195.731
 8.4736  38997.6  196.225
 8.6716  38337.5  195.234
 8.8696  38435.9  196.078
 9.0676  37593.3  193.277
 9.2656  36387.8  190.842
 9.4636  36306.4  188.934
 9.6616  35638.5  187.972
 9.8596  33732.1  182.524
 10.0576  32188.8  178.918
 10.2556  30853.3  175.663
 10.4536  30029.4  172.896
 10.6516  28712.5  169.258
 10.8496  28276.6  167.275
 11.0476  27474.3  164.91
 11.2456  26899.4  163.698
 11.4436  26924  162.943
 11.6416  27579.1  165.288
 11.8396  25570.5  159.414
 12.0376  25367.3  158.304
 12.2356  24676.5  156.585
 12.4336  24922  156.902
 12.6316  24400.8  155.577
 12.8296  24687.2  156.076
 13.0276  25512.4  158.799
 13.2256  25457.8  159.054
 13.4236  25269.4  158.218
 13.6216  25160.3  157.951
 13.8196  25134.1  157.579
 14.0176  24673.9  156.37
 14.2156  24145  153.769
 14.4136  23089.6  151.759
 14.6116  22735.5  149.787
 14.8096  21984.8  147.227
 15.0076  20841.7  147.302
 15.2056  20631.3  142.171
 15.4036  19549.4  139.23
 15.6016  19326.7  137.495
 15.7996  18826.6  135.972
 15.9976  17952.2  135.826
 16.1956  17391.1  131.596
 16.3936  17054.9  129.484
 16.5916  16856.2  129.367
 16.7896  16800.2  129.212
 16.9876  16666.8  130.201
 17.1856  16532  128.029
 17.3836  15943.6  125.664
 17.5816  15609.7  124.834
 17.7796  15229.7  123.239
 17.9776  15050.9  123.233
 18.1756  15207.8  122.562
 18.3736  14843.3  121.596
 18.5716  14582.2  120.273
 18.7696  14669.6  120.2
 18.9676  14437.5  119.096
 19.1656  14381.5  119.341
 19.3636  14374.9  119.559
 19.5616  14285.4  119.362
 19.7596  14247.8  118.64
 19.9576  14591.3  120.079
 20.1556  15486.1  124.222
 20.3536  14261  118.601
 20.5516  13960.6  117.798
 20.7496  13412.1  115.356
 20.9476  13515.5  115.636
 21.1456  13539.6  116.001
 21.3436  13269  114.824
 21.5416  13144.3  114.284
 21.7396  13022.1  113.593
 21.9376  13081.3  113.583
 22.1356  13065  113.852
 22.3336  13138.8  114.231
 22.5316  13120.2  114.217
 22.7296  13142.8  113.661
 22.9276  12954.4  113.533
 23.1256  13259.6  114.306
 23.3236  13265.9  115.016
 23.5216  12905.9  113.095
 23.7196  12638.1  112.134
 23.9176  12671.6  111.813
 24.1156  12519.7  111.567
 24.3136  12075.3  110.43
 24.5116  12256.1  110.766
 24.7096  11793.1  108.477
 24.9076  11701  108.102
 25.1056  11529  107.752
 25.3036  11388  106.521
 25.5016  11300.8  106.146
 25.6996  11255.3  105.512
 25.8976  11237.2  105.906
 26.0956  11336.5  106.325
 26.2936  11181.3  105.265
 26.4916  11308.5  105.739
 26.6896  10931.2  104.266
 26.8876  10820.5  103.625
 27.0856  10861.5  103.797
 27.2836  10662.1  102.772
 27.4816  10538.4  102.1
 27.6796  10503.9  102.314
 27.8776  10354.7  101.483
 28.0756  10454.7  102.195
 28.2736  10226.2  100.683
 28.4716  10058.8  99.9066
 28.6696  10335.3  101.11
 28.8676  10100.5  100.308
 29.0656  9980.65  99.6903
 29.2636  9950.95  99.3548
 29.4616  10080.4  100.094
 29.6596  9982.44  99.1658
 29.8576  9825.51  99.078
 30.0556  9872.89  99.1724
 30.2536  9985.1  99.542
 30.4516  9620.13  97.4336
 30.6496  9720.56  97.6657
 30.8476  9654.5  97.7801
 31.0456  9598.24  97.4979
 31.2436  9591.9  96.7228
 31.4416  9351.72  95.6943
 31.6396  9409.99  96.0428
 31.8376  9616.34  96.628
 32.0356  9364.78  95.9257
 32.2336  9235.54  94.6714
 32.4316  9338.44  95.5197
 32.6296  9315.23  95.2348
 32.8276  9203.95  94.4371
 33.0256  9061.71  93.7866
 33.2236  9066.87  93.99
 33.4216  9221.06  94.406
 33.6196  9031.58  93.7562
 33.8176  9085.92  94.2005
 34.0156  8965.85  93.1931
 34.2136  8901.37  92.9297
 34.4116  8888.93  92.9626
 34.6096  8873.75  92.7884
 34.8076  8717.32  92.3671
 35.0056  8832.36  92.6664
 35.2036  8815.38  92.8203
 35.4016  8845.12  92.8439
 35.5996  8620.52  91.7149
 35.7976  8616.68  91.9711
 35.9956  8702.56  92.0686
 36.1936  8554.97  91.1608
 36.3916  8554.85  91.3304
 36.5896  8492.46  91.9997
 36.7876  8590.03  91.8386
 36.9856  8241.69  89.9876
 37.1836  8510.9  90.5301
 37.3816  8542.86  91.0553
 37.5796  8289.9  91.5171
 37.7776  8292.18  89.9217
 37.9756  8193.93  89.2736
 38.1736  8467.07  90.9151
 38.3716  8215.58  89.8305
 38.5696  8154.15  89.8667
 38.7676  7919.26  88.1274
 38.9656  8082.5  88.6628
 39.1636  8067.1  88.8656
 39.3616  8119.91  89.037
 39.5596  7960.92  88.9828
 39.7576  7935.42  88.2158
 39.9556  8137.63  88.9672
 40.1536  8209.5  89.5644
 40.3516  8210.94  89.583
 40.5496  8203.33  89.8023
 40.7476  8193.55  89.7522
 40.9456  8300.98  90.0865
 41.1436  8231.6  89.457
 41.3416  8118.72  89.1231
 41.5396  8153.83  89.1496
 41.7376  8088.05  89.0549
 41.9356  8167.19  89.3495
 42.1336  8008.96  88.6592
 42.3316  8024.67  88.8908
 42.5296  8034.93  88.4833
 42.7276  7969.3  88.3617
 42.9256  8058.43  88.7196
 43.1236  7911.56  88.0188
 43.3216  7975.17  88.1206
 43.5196  7845.86  87.4912
 43.7176  7825.98  87.7526
 43.9156  7784.86  87.3693
 44.1136  7706.36  86.4768
 44.3116  7776.29  86.867
 44.5096  7789.19  87.2676
 44.7076  7776.66  87.1281
 44.9056  7691.88  86.5871
 45.1036  7672.33  86.0978
 45.3016  7556.19  85.9481
 45.4996  7608.12  86.1801
 45.6976  7297.95  84.5442
 45.8956  7589.49  86.1139
 46.0936  7633.36  86.1221
 46.2916  7544.6  85.8455
 46.4896  7575.41  86.0549
 46.6876  7358.66  85.5294
 46.8856  7351.42  84.6818
 47.0836  7306.09  84.702
 47.2816  7196.92  83.9151
 47.4796  7413.05  85.2783
 47.6776  7183.74  84.8886
 47.8756  7283.96  84.6511
 48.0736  7191.68  84.5737
 48.2716  7073.18  83.6637
 48.4696  7206.66  84.071
 48.6676  7093.5  83.9893
 48.8656  7175.85  84.1948
 49.0636  7148.55  84.0097
 49.2616  7001.99  83.1373
 49.4596  7048.72  82.9971
 49.6576  6995.59  82.9133
 49.8556  6951.82  82.6694
 50.0536  6975.48  83.2605
 50.2516  6920.63  83.0673
 50.4496  6930.59  82.7719
 50.6476  6948.82  82.5652
 50.8456  6927.76  82.5235
 51.0436  6760.5  81.9104
 51.2416  6781.36  81.694
 51.4396  6724.24  81.7554
 51.6376  6741.37  81.6988
 51.8356  6730.51  81.2728
 52.0336  6562.52  80.7992
 52.2316  6506.6  80.8028
 52.4296  6689.45  81.5759
 52.6276  6675.81  81.6076
 52.8256  6604.41  80.7515
 53.0236  6516.54  80.9221
 53.2216  6471.7  80.6357
 53.4196  6317.58  79.6353
 53.6176  6429.11  80.8084
 53.8156  6324.77  79.8207
 54.0136  6457.39  80.7578
 54.2116  6440.05  80.3648
 54.4096  6433.63  80.3431
 54.6076  6358.21  80.2251
 54.8056  6353.86  79.9848
 55.0036  6384.44  80.4726
 55.2016  6384.56  80.0394
 55.3996  6422.25  80.2999
 55.5976  6335.7  79.962
 55.7956  6387.69  80.1074
 55.9936  6352.7  80.0463
 56.1916  6362.1  80.0988
 56.3896  6322.4  79.8167
 56.5876  6173.56  79.4492
 56.7856  6161.82  78.8406
 56.9836  6220.48  79.034
 57.1816  6304.07  79.9524
 57.3796  6337.47  79.9285
 57.5776  6314.51  79.7158
 57.7756  6180.65  79.5069
 57.9736  6275.38  79.7842
 58.1716  6302.8  80.1672
 58.3696  6242.18  79.5243
 58.5676  6297.68  79.3395
 58.7656  6377.62  80.5198
 58.9636  6332.76  80.2702
 59.1616  6327.6  80.3558
 59.3596  6377.61  79.8825
 59.5576  6381.23  79.9634
 59.7556  6353.52  80.2181
 59.9536  6558.07  81.3939
 60.1516  6192.47  79.951
 60.1996  0.0000000E+00  0.0000000E+00