File: docs/examples/opeando_xrd/IS17_D/Data/IS17_D/17_Da_f00057.xye
# /beamlines/bl04/projects/cycle2025-II/20250340211-lsimonelli/DATA/IS17_D/17_Da_f00057.xye : mythproc.py merge -s 0.006 -l 0.5 -f /beamlines/bl04/inhouse/ff/FlatField/ff_20Nov2024rod8mm60s_17keV.raw -b True -c true -o xye /beamlines/bl04/projects/cycle2025-II/20250340211-lsimonelli/DATA/IS17_D/17_Da_00057.dat
# IsMon = [6774168, 6774079, 6774426]  IsPos = [-1.5000, -2.4884, -3.4988]
# Wave = 0.4962  CalPath /beamlines/bl04/projects/cycle2025-II/20250340211-lsimonelli/DATA/Align/Si_Pos1_25keV_f00001.cal
# Date = 2025-09-24_09:25:02 Dt = 4.8000  Bin = 0.0060  <imon> = 6774224 +/- 147 (Min/Max) 6774079 / 6774426
# icurr 251.2939  mocoIn 1.7146E-05  mocoOut 0.8047  i15 7.09407e+06  imon 6.77422e+06  i7 4.6667  iEMpd_timer 4.8000  iEMpd_1 3.4721E-08  iEMpd_2 7.9554E-08  iEMpd_3 1.7137E-08  iEMpd_4 4.6973E-08  iEMhp_timer 4.8000  iEMhp_1 4.9110E-06  iEMhp_2 -2.5887E-08  iEMhp_3 -2.4739E-08  iEMhp_4 -2.3919E-08
#      9776
 1.7416  70506.1  265.607
 1.9396  46363.1  215.659
 2.1376  33135.8  182.316
 2.3356  29337.4  171.188
 2.5336  27521.5  166.389
 2.7316  25509  160.3
 2.9296  24714.9  157.954
 3.1276  24211  155.877
 3.3256  23789.5  154.189
 3.5236  25569.6  159.654
 3.7216  23635.2  154.739
 3.9196  23160.2  152.407
 4.1176  22881.1  151.248
 4.3156  24459.2  156.547
 4.5136  26633.3  162.336
 4.7116  27543.6  166.226
 4.9096  27079.4  164.256
 5.1076  26716.3  163.728
 5.3056  27004.2  164.34
 5.5036  26799  163.606
 5.7016  27233.1  164.894
 5.8996  27856.4  165.984
 6.0976  28574.4  169.55
 6.2956  29080.2  170.379
 6.4936  29788.8  171.637
 6.6916  30127.8  173.602
 6.8896  31002.2  175.962
 7.0876  32293.9  180.246
 7.2856  32003.7  178.568
 7.4836  32365.7  178.908
 7.6816  33203.8  181.746
 7.8796  34947.2  186.452
 8.0776  36320.4  191.072
 8.2756  37842.5  193.631
 8.4736  38593.8  195.349
 8.6716  37933.6  194.308
 8.8696  37957.4  194.851
 9.0676  36990.9  191.711
 9.2656  36163.3  190.252
 9.4636  35651.5  187.296
 9.6616  34986.7  186.324
 9.8596  33943.3  182.975
 10.0576  31750.5  177.647
 10.2556  30816.3  175.439
 10.4536  29885.4  172.375
 10.6516  29019.3  170.049
 10.8496  28213.3  167.086
 11.0476  27463.2  164.874
 11.2456  26707.6  163.125
 11.4436  26975  163.105
 11.6416  26947.3  163.387
 11.8396  25280.1  158.454
 12.0376  24966.8  157.105
 12.2356  24608.7  156.384
 12.4336  24555.4  155.749
 12.6316  24218  154.944
 12.8296  24471.6  155.394
 13.0276  25161.4  157.75
 13.2256  25116.9  157.979
 13.4236  25050.4  157.538
 13.6216  24799.2  156.762
 13.8196  24689.2  156.182
 14.0176  24431.9  155.65
 14.2156  23933.9  153.098
 14.4136  22697.5  150.461
 14.6116  22595.4  149.329
 14.8096  21849.5  146.826
 15.0076  20597.5  146.384
 15.2056  20145.9  140.587
 15.4036  19345  138.603
 15.6016  18883.9  136.011
 15.7996  18409.3  134.579
 15.9976  17720.4  135.001
 16.1956  16971.3  129.987
 16.3936  16763.6  128.363
 16.5916  16564.4  128.234
 16.7896  16554  128.25
 16.9876  16576  129.816
 17.1856  16337.6  127.227
 17.3836  15741.3  124.788
 17.5816  15341.2  123.681
 17.7796  15357  123.67
 17.9776  14942.3  122.786
 18.1756  14963.6  121.572
 18.3736  14758  121.252
 18.5716  14670.5  120.638
 18.7696  14587.3  119.867
 18.9676  14219.3  118.152
 19.1656  14230.6  118.764
 19.3636  14129.8  118.545
 19.5616  14177.5  118.91
 19.7596  14184.4  118.343
 19.9576  14673.9  120.418
 20.1556  14709.2  121.102
 20.3536  14086.1  117.882
 20.5516  13745.5  116.893
 20.7496  13309.9  114.877
 20.9476  13287.8  114.623
 21.1456  13491.7  115.836
 21.3436  13193.6  114.494
 21.5416  13068.7  113.954
 21.7396  12990.3  113.459
 21.9376  12959.7  113.084
 22.1356  12914.2  113.167
 22.3336  12936  113.408
 22.5316  12818.7  112.98
 22.7296  12958.2  112.951
 22.9276  12820.6  113.026
 23.1256  12962.8  113.124
 23.3236  12902.9  113.425
 23.5216  12691.3  112.141
 23.7196  12520.5  111.551
 23.9176  12327  110.223
 24.1156  12306.7  110.607
 24.3136  12120.4  110.564
 24.5116  12084.6  109.925
 24.7096  11787  108.38
 24.9076  11476.8  106.968
 25.1056  11353.8  106.861
 25.3036  11246  105.861
 25.5016  11187.4  105.621
 25.6996  11135.9  104.957
 25.8976  11115.2  105.292
 26.0956  11131.2  105.388
 26.2936  11125.5  105.006
 26.4916  11207.6  105.28
 26.6896  10845.3  103.857
 26.8876  10708.5  103.049
 27.0856  10777.9  103.442
 27.2836  10652.5  102.727
 27.4816  10488  101.861
 27.6796  10310  101.37
 27.8776  10339.1  101.371
 28.0756  10351.8  101.721
 28.2736  10268.5  100.893
 28.4716  10100.1  100.11
 28.6696  9983.84  99.3785
 28.8676  10026  99.9389
 29.0656  9882.48  99.1981
 29.2636  9846.26  98.8099
 29.4616  9753.48  98.5254
 29.6596  9820.38  98.4266
 29.8576  9664.41  98.3322
 30.0556  9690.41  98.3404
 30.2536  9866.46  99.0197
 30.4516  9553.94  97.0924
 30.6496  9656.95  97.3359
 30.8476  9669.1  97.8468
 31.0456  9385.62  96.3615
 31.2436  9415.07  95.7793
 31.4416  9311.79  95.4318
 31.6396  9299.97  95.4185
 31.8376  9417.78  95.5655
 32.0356  9247.21  95.2584
 32.2336  9184.44  94.3248
 32.4316  9197.09  94.7996
 32.6296  9166.48  94.4761
 32.8276  9145.48  94.139
 33.0256  9035.21  93.6464
 33.2236  8935.44  93.2761
 33.4216  9139.32  94.0201
 33.6196  9055.62  93.8853
 33.8176  8968.85  93.6026
 34.0156  8909.84  92.9082
 34.2136  8778.41  92.251
 34.4116  8809.48  92.572
 34.6096  8694.11  91.8374
 34.8076  8652.29  92.0222
 35.0056  8702.94  91.986
 35.2036  8649.56  91.9142
 35.4016  8669.91  91.9463
 35.5996  8657.03  91.9107
 35.7976  8439.78  91.0303
 35.9956  8427.17  90.6084
 36.1936  8484.32  90.7823
 36.3916  8410.56  90.5618
 36.5896  8404.87  91.5031
 36.7876  8334.99  90.533
 36.9856  8411.54  90.9748
 37.1836  8368.34  89.8323
 37.3816  8402.06  90.3826
 37.5796  8327.6  91.7222
 37.7776  8136.28  89.0338
 37.9756  8161  89.0472
 38.1736  8316.31  90.0949
 38.3716  8059.47  88.9676
 38.5696  8166.45  89.9312
 38.7676  8032.33  88.6972
 38.9656  7945.57  87.8518
 39.1636  8013.74  88.4881
 39.3616  8073.86  88.7586
 39.5596  7864.23  88.4343
 39.7576  7974.83  88.4271
 39.9556  7914.63  87.7372
 40.1536  8061.46  88.7482
 40.3516  8121.6  89.0924
 40.5496  8132  89.4161
 40.7476  8142.6  89.4702
 40.9456  8205.79  89.5722
 41.1436  8118.73  88.8137
 41.3416  8079.15  88.9333
 41.5396  7939.74  87.9696
 41.7376  8128.77  89.2758
 41.9356  7942.88  88.1128
 42.1336  7982.8  88.4811
 42.3316  7910.93  88.2837
 42.5296  7975.57  88.155
 42.7276  7977.8  88.4081
 42.9256  8062.04  88.7431
 43.1236  7814.13  87.4736
 43.3216  7847.04  87.4078
 43.5196  7843.92  87.4579
 43.7176  7853.96  87.9106
 43.9156  7663.02  86.7453
 44.1136  7636.66  86.1471
 44.3116  7697.35  86.504
 44.5096  7679.21  86.7139
 44.7076  7675.41  86.6212
 44.9056  7622.04  86.1847
 45.1036  7549.8  85.4004
 45.3016  7482.05  85.5188
 45.4996  7386.72  84.9087
 45.6976  7414.41  85.246
 45.8956  7461.93  85.3343
 46.0936  7443.49  84.9865
 46.2916  7549.05  85.8147
 46.4896  7439.45  85.2147
 46.6876  7281.76  85.0254
 46.8856  7326.08  84.547
 47.0836  7235.88  84.2663
 47.2816  7211.01  83.998
 47.4796  7251.71  84.3312
 47.6776  7021.15  83.9208
 47.8756  7143.89  83.8352
 48.0736  7194.78  84.5812
 48.2716  7028.32  83.4179
 48.4696  7158.83  83.7857
 48.6676  7181.83  84.506
 48.8656  7048.66  83.4496
 49.0636  7033.06  83.2946
 49.2616  6888.5  82.4762
 49.4596  6910.89  82.1748
 49.6576  7007.41  82.9641
 49.8556  6936.16  82.5756
 50.0536  6916.14  82.9001
 50.2516  6909.98  82.9969
 50.4496  6914.86  82.6823
 50.6476  6959.42  82.628
 50.8456  6879.31  82.2453
 51.0436  6659.73  81.3555
 51.2416  6801.22  81.8864
 51.4396  6556.42  80.7926
 51.6376  6644.34  81.1605
 51.8356  6604.8  80.5483
 52.0336  6588.44  80.9559
 52.2316  6544.72  81.0361
 52.4296  6610.94  81.1333
 52.6276  6565.44  80.9703
 52.8256  6565.28  80.5223
 53.0236  6507.37  80.8147
 53.2216  6507.04  80.8242
 53.4196  6439.66  80.3504
 53.6176  6391.53  80.5268
 53.8156  6558.6  81.2412
 54.0136  6381.66  80.3095
 54.2116  6378.26  79.953
 54.4096  6416.83  80.2422
 54.6076  6316.5  79.9651
 54.8056  6261.35  79.4022
 55.0036  6249.49  79.5889
 55.2016  6281.5  79.3949
 55.3996  6312.05  79.6296
 55.5976  6226.16  79.2715
 55.7956  6303.88  79.5818
 55.9936  6302.11  79.7079
 56.1916  6281.43  79.5884
 56.3896  6236.23  79.2996
 56.5876  6121.54  79.1155
 56.7856  6129.4  78.653
 56.9836  6185.13  78.7906
 57.1816  6269.4  79.7048
 57.3796  6230.1  79.2567
 57.5776  6282.46  79.5067
 57.7756  6226.27  79.8036
 57.9736  6208.02  79.3535
 58.1716  6223.17  79.6889
 58.3696  6123.09  78.801
 58.5676  6267.55  79.1904
 58.7656  6329.57  80.2743
 58.9636  6318.2  80.2337
 59.1616  6271.92  80.0731
 59.3596  6217.26  78.9722
 59.5576  6224.21  79.0736
 59.7556  6269.18  79.7848
 59.9536  6325.89  80.0414
 60.1516  6049.71  79.1241
 60.1996  0.0000000E+00  0.0000000E+00