File: docs/examples/opeando_xrd/IS17_D/Data/IS17_D/17_Db_f00121.xye
# /beamlines/bl04/projects/cycle2025-II/20250340211-lsimonelli/DATA/IS17_D/17_Db_f00121.xye : mythproc.py merge -s 0.006 -l 0.5 -f /beamlines/bl04/inhouse/ff/FlatField/ff_20Nov2024rod8mm60s_17keV.raw -b True -c true -o xye /beamlines/bl04/projects/cycle2025-II/20250340211-lsimonelli/DATA/IS17_D/17_Db_00121.dat
# IsMon = [6762458, 6763307, 6768294]  IsPos = [-1.4999, -2.4884, -3.4988]
# Wave = 0.4962  CalPath /beamlines/bl04/projects/cycle2025-II/20250340211-lsimonelli/DATA/Align/Si_Pos1_25keV_f00001.cal
# Date = 2025-09-25_03:27:15 Dt = 4.8000  Bin = 0.0060  <imon> = 6764686 +/- 2574 (Min/Max) 6762458 / 6768294
# icurr 250.8557  mocoIn 1.7118E-05  mocoOut 0.8026  i15 7.09045e+06  imon 6.76469e+06  i7 6.3333  iEMpd_timer 4.8000  iEMpd_1 3.4969E-08  iEMpd_2 7.9639E-08  iEMpd_3 1.7965E-08  iEMpd_4 4.9217E-08  iEMhp_timer 4.8000  iEMhp_1 4.9011E-06  iEMhp_2 -2.4931E-08  iEMhp_3 -2.4469E-08  iEMhp_4 -2.1586E-08
#      9776
 1.7416  71148.6  266.857
 1.9396  48898.4  221.514
 2.1376  35861.3  189.697
 2.3356  32198.8  179.372
 2.5336  30093.9  174.02
 2.7316  27657.5  166.94
 2.9296  26368.2  163.158
 3.1276  25927.1  161.324
 3.3256  25201.6  158.705
 3.5236  26743.4  163.281
 3.7216  24401.6  157.217
 3.9196  24058.5  155.308
 4.1176  23972.8  154.825
 4.3156  24823.6  157.698
 4.5136  27025.5  163.53
 4.7116  28314.7  168.533
 4.9096  27411  165.242
 5.1076  27210.4  165.233
 5.3056  27220.3  164.967
 5.5036  27121.7  164.595
 5.7016  27486.8  165.654
 5.8996  28056.7  166.588
 6.0976  29021.2  170.852
 6.2956  29079.5  170.367
 6.4936  29862  171.83
 6.6916  30264.5  173.991
 6.8896  31011.8  175.967
 7.0876  31795  178.932
 7.2856  31842.2  178.102
 7.4836  32178.4  178.385
 7.6816  33126.7  181.507
 7.8796  33809.8  183.368
 8.0776  35440.2  188.729
 8.2756  37167.3  191.871
 8.4736  37683.4  193.017
 8.6716  36821.3  191.432
 8.8696  37676.7  194.141
 9.0676  37125.7  192.023
 9.2656  36068  189.985
 9.4636  35168.8  186.033
 9.6616  34509.5  185.011
 9.8596  33692  182.294
 10.0576  31823.5  177.85
 10.2556  30468.6  174.474
 10.4536  29837.7  172.254
 10.6516  29064  170.216
 10.8496  27840.6  165.975
 11.0476  27263.6  164.267
 11.2456  26522.3  162.568
 11.4436  26574.1  161.883
 11.6416  26683.4  162.565
 11.8396  25406.4  158.842
 12.0376  24714.5  156.289
 12.2356  24309.3  155.432
 12.4336  24230.1  154.714
 12.6316  24208.1  154.919
 12.8296  24321.9  154.882
 13.0276  24554.6  155.828
 13.2256  24968.1  157.507
 13.4236  24734.6  156.544
 13.6216  24964.4  157.26
 13.8196  27015.9  163.072
 14.0176  24060.8  154.465
 14.2156  23396.9  151.358
 14.4136  22520.7  149.886
 14.6116  22162  147.879
 14.8096  21360.2  145.151
 15.0076  20501.7  146.136
 15.2056  19548.9  138.478
 15.4036  18611.5  135.941
 15.6016  18228.2  133.627
 15.7996  17739.1  132.086
 15.9976  17488.4  134.074
 16.1956  17247.4  131.006
 16.3936  16898.2  128.846
 16.5916  16634.1  128.481
 16.7896  16496  128.012
 16.9876  16557.9  129.738
 17.1856  16265.9  126.961
 17.3836  15715.1  124.706
 17.5816  15235.8  123.268
 17.7796  15316.1  123.517
 17.9776  14897.7  122.582
 18.1756  14978.1  121.654
 18.3736  14585.8  120.535
 18.5716  14744.5  120.936
 18.7696  14530.1  119.616
 18.9676  14410.3  118.927
 19.1656  13973.7  117.686
 19.3636  14086.9  118.361
 19.5616  14087.9  118.539
 19.7596  14261.5  118.661
 19.9576  14588.8  120.048
 20.1556  14546.9  120.421
 20.3536  13941.7  117.277
 20.5516  13489.9  115.791
 20.7496  13192.7  114.449
 20.9476  13338.3  114.842
 21.1456  13082.6  114.054
 21.3436  12933.2  113.355
 21.5416  12806.8  112.815
 21.7396  12762.7  112.463
 21.9376  12716.6  112.025
 22.1356  12676.1  111.973
 22.3336  12514  111.54
 22.5316  12567.9  111.864
 22.7296  12465.1  110.779
 22.9276  12305.2  110.722
 23.1256  12592.8  111.483
 23.3236  12797.2  112.968
 23.5216  12642.6  111.917
 23.7196  12473.8  111.125
 23.9176  12625.6  111.554
 24.1156  12385.8  110.931
 24.3136  12041.9  110.212
 24.5116  12174.2  110.332
 24.7096  11762.3  108.264
 24.9076  11775.9  108.365
 25.1056  11468.4  107.399
 25.3036  11034.8  104.859
 25.5016  11171.7  105.543
 25.6996  11175.2  105.14
 25.8976  11030.4  104.886
 26.0956  11016.7  104.832
 26.2936  11011.4  104.467
 26.4916  11297.4  105.672
 26.6896  10964.3  104.411
 26.8876  10710  103.05
 27.0856  10611.9  102.631
 27.2836  10404.4  101.519
 27.4816  10352.4  101.206
 27.6796  10313.2  101.378
 27.8776  10427.3  101.797
 28.0756  10275.8  101.342
 28.2736  10064.5  99.88
 28.4716  9986.89  99.5392
 28.6696  10042.1  99.6681
 28.8676  9803.27  98.8187
 29.0656  9818.12  98.8702
 29.2636  9830.25  98.7239
 29.4616  9499.4  97.2282
 29.6596  9600.96  97.3123
 29.8576  9403.04  96.9855
 30.0556  9430.35  96.9967
 30.2536  9576.63  97.5466
 30.4516  9474.99  96.661
 30.6496  9644.01  97.2583
 30.8476  9612.92  97.5549
 31.0456  9523.07  97.0559
 31.2436  9564.69  96.5291
 31.4416  9291.55  95.3322
 31.6396  9348.24  95.6713
 31.8376  9395.15  95.4308
 32.0356  9424.05  96.1612
 32.2336  9276.02  94.8055
 32.4316  9105.01  94.3185
 32.6296  8981.39  93.5118
 32.8276  9065.86  93.7339
 33.0256  9000.66  93.4566
 33.2236  9061.9  93.9256
 33.4216  8933.34  92.9377
 33.6196  8909.39  93.1179
 33.8176  8889.13  93.1733
 34.0156  8779.91  92.2282
 34.2136  8942.15  93.0985
 34.4116  8592.68  91.4279
 34.6096  8714.67  91.9537
 34.8076  8544.5  91.4665
 35.0056  8623.6  91.5594
 35.2036  8807.97  92.7608
 35.4016  8570.51  91.4107
 35.5996  8439.68  90.7481
 35.7976  8509.01  91.3852
 35.9956  8635.09  91.7158
 36.1936  8566.05  91.1981
 36.3916  8370.7  90.3469
 36.5896  8321.01  91.0678
 36.7876  8170.88  89.6233
 36.9856  8002.7  88.7158
 37.1836  8125.29  88.5082
 37.3816  8042.24  88.4147
 37.5796  8199.26  91.0124
 37.7776  8264.21  89.7316
 37.9756  8235.2  89.4564
 38.1736  8271.47  89.8393
 38.3716  8144.56  89.4169
 38.5696  8056.97  89.3268
 38.7676  7909.06  88.0213
 38.9656  7982.9  88.0658
 39.1636  8005.35  88.4593
 39.3616  7973.4  88.2142
 39.5596  7795.99  88.0506
 39.7576  7897.64  88.0112
 39.9556  7946.72  87.9197
 40.1536  7980.17  88.2989
 40.3516  8001.99  88.4315
 40.5496  8069.88  89.0725
 40.7476  8106.08  89.2696
 40.9456  8086.73  88.9138
 41.1436  8123.44  88.8413
 41.3416  7911.41  88.0013
 41.5396  7995.54  88.2802
 41.7376  7974.81  88.4262
 41.9356  8001.17  88.4282
 42.1336  8122.44  89.2396
 42.3316  7912.54  88.2821
 42.5296  7979.73  88.1664
 42.7276  7921.1  88.0906
 42.9256  7832.16  87.4686
 43.1236  7924.45  88.0828
 43.3216  7957.6  88.0135
 43.5196  7779.95  87.0966
 43.7176  7723.96  87.1673
 43.9156  7641.81  86.6206
 44.1136  7515.68  85.4562
 44.3116  7696.89  86.4828
 44.5096  7536.57  85.8977
 44.7076  7551.28  85.9114
 44.9056  7703.88  86.6413
 45.1036  7714.01  86.3156
 45.3016  7621.5  86.3032
 45.4996  7572.63  85.9671
 45.6976  7596.72  86.273
 45.8956  7679.31  86.5722
 46.0936  7755.88  87.0075
 46.2916  7683.91  86.5817
 46.4896  7669.76  86.5311
 46.6876  7599.04  86.8514
 46.8856  7568.51  85.913
 47.0836  7560.59  86.1291
 47.2816  7502.52  85.6836
 47.4796  7536.14  85.9768
 47.6776  7501.38  86.7529
 47.8756  7395.69  85.2934
 48.0736  7438.09  85.999
 48.2716  7277.07  84.8837
 48.4696  7474.14  85.6099
 48.6676  7470.35  86.1916
 48.8656  7475.66  85.9392
 49.0636  7469.63  85.8386
 49.2616  7248.64  84.6067
 49.4596  7430.26  85.2091
 49.6576  7379.29  85.1473
 49.8556  7341.44  84.9529
 50.0536  7275.21  85.0223
 50.2516  7336.54  85.5175
 50.4496  7366.67  85.3391
 50.6476  7388.45  85.1318
 50.8456  7347.06  84.9816
 51.0436  7230.42  84.7621
 51.2416  7191.32  84.1912
 51.4396  6959.32  83.2361
 51.6376  7151.57  84.2013
 51.8356  7123.61  83.6483
 52.0336  7041.29  83.684
 52.2316  7020.21  83.9129
 52.4296  6963.41  83.272
 52.6276  6976.8  83.4515
 52.8256  7041.16  83.4021
 53.0236  7062.13  84.1926
 53.2216  7059.84  84.2212
 53.4196  7074.9  84.1941
 53.6176  6965.7  84.0738
 53.8156  6977.46  83.8034
 54.0136  6676.06  82.1298
 54.2116  6889.32  83.059
 54.4096  6667.6  81.7776
 54.6076  6688.99  82.2626
 54.8056  6579.69  81.3669
 55.0036  6620.94  82.0358
 55.2016  6668.11  81.8257
 55.3996  6394.96  80.1338
 55.5976  6565.26  81.3805
 55.7956  6484.77  80.6918
 55.9936  6561.18  81.3009
 56.1916  6447.24  80.633
 56.3896  6358.88  80.0457
 56.5876  6453.98  81.2099
 56.7856  6345.32  80.0203
 56.9836  6462.41  80.5186
 57.1816  6541.36  81.3884
 57.3796  6354.18  80.033
 57.5776  6358.19  79.9145
 57.7756  6196.89  79.5969
 57.9736  6313.77  80.0048
 58.1716  6242.67  79.8148
 58.3696  6009.08  78.0657
 58.5676  6132.51  78.3306
 58.7656  5964.12  77.9164
 58.9636  6090.44  78.7634
 59.1616  5980.01  78.1795
 59.3596  5991.9  77.508
 59.5576  6089.76  78.1951
 59.7556  5974.68  77.8687
 59.9536  6103.62  78.6029
 60.1516  5977.13  78.6283
 60.1996  0.0000000E+00  0.0000000E+00