File: docs/examples/opeando_xrd/IS17_D/Data/IS17_D/17_Da_f00011.xye
# /beamlines/bl04/projects/cycle2025-II/20250340211-lsimonelli/DATA/IS17_D/17_Da_f00011.xye : mythproc.py merge -s 0.006 -l 0.5 -f /beamlines/bl04/inhouse/ff/FlatField/ff_20Nov2024rod8mm60s_17keV.raw -b True -c true -o xye /beamlines/bl04/projects/cycle2025-II/20250340211-lsimonelli/DATA/IS17_D/17_Da_00011.dat
# IsMon = [6742230, 6735345, 6741626]  IsPos = [-1.5000, -2.4885, -3.4988]
# Wave = 0.4962  CalPath /beamlines/bl04/projects/cycle2025-II/20250340211-lsimonelli/DATA/Align/Si_Pos1_25keV_f00001.cal
# Date = 2025-09-23_20:36:41 Dt = 4.8000  Bin = 0.0060  <imon> = 6739734 +/- 3113 (Min/Max) 6735345 / 6742230
# icurr 248.6648  mocoIn 1.6978E-05  mocoOut 0.7961  i15 7.04936e+06  imon 6.73973e+06  i7 5.3333  iEMpd_timer 4.8000  iEMpd_1 3.4882E-08  iEMpd_2 7.8101E-08  iEMpd_3 1.6059E-08  iEMpd_4 4.7990E-08  iEMhp_timer 4.8000  iEMhp_1 4.8617E-06  iEMhp_2 -2.4201E-08  iEMhp_3 -2.3949E-08  iEMhp_4 -2.0702E-08
#      9776
 1.7416  67262.5  259.376
 1.9396  43224.4  208.186
 2.1376  30319.2  174.363
 2.3356  26843.5  163.72
 2.5336  28678.7  169.819
 2.7316  24129.5  155.919
 2.9296  22670  151.288
 3.1276  21954.5  148.44
 3.3256  21692.5  147.257
 3.5236  23614.6  153.586
 3.7216  21661.9  148.143
 3.9196  21470.9  146.743
 4.1176  21133.3  145.349
 4.3156  22289  149.439
 4.5136  25451.7  158.707
 4.7116  26121.7  161.883
 4.9096  25264.9  158.655
 5.1076  24736.6  157.535
 5.3056  25089.3  158.403
 5.5036  24557.2  156.696
 5.7016  25010.5  158.022
 5.8996  25438.3  158.612
 6.0976  26270.9  162.567
 6.2956  26957.1  164.047
 6.4936  27513.4  164.944
 6.6916  28157  167.832
 6.8896  29064.3  170.379
 7.0876  29972.5  173.637
 7.2856  29845.4  172.443
 7.4836  30435.5  173.486
 7.6816  31029.1  175.696
 7.8796  32512.6  179.857
 8.0776  36470.7  191.485
 8.2756  36929  191.28
 8.4736  36443.7  189.842
 8.6716  35778.4  188.741
 8.8696  36622.9  191.35
 9.0676  35781.9  188.516
 9.2656  33509.8  183.1
 9.4636  32972.2  180.096
 9.6616  32272.3  178.918
 9.8596  31038.8  174.98
 10.0576  29547  171.388
 10.2556  28316.2  168.188
 10.4536  32690  180.292
 10.6516  33319.5  182.228
 10.8496  26208.2  161.029
 11.0476  26402.4  161.623
 11.2456  28821.5  169.473
 11.4436  25466.8  158.477
 11.6416  24761.2  156.618
 11.8396  23521  152.831
 12.0376  23324.6  151.837
 12.2356  24727.6  156.788
 12.4336  23903.2  153.663
 12.6316  22383.5  148.956
 12.8296  23164.6  151.187
 13.0276  23496.7  152.442
 13.2256  23176.9  151.755
 13.4236  23279.6  151.863
 13.6216  23127.2  151.373
 13.8196  23970.1  153.891
 14.0176  22891.7  150.671
 14.2156  22427.2  148.198
 14.4136  21230.1  145.523
 14.6116  21036.4  144.082
 14.8096  20081.8  140.758
 15.0076  19326.8  141.814
 15.2056  18794.1  135.804
 15.4036  17890.3  133.301
 15.6016  17558.1  131.17
 15.7996  17218.6  130.156
 15.9976  16390  129.833
 16.1956  16042.7  126.361
 16.3936  15783.5  124.534
 16.5916  15847.3  125.404
 16.7896  15494.1  124.058
 16.9876  15542.2  125.711
 17.1856  15362.1  123.394
 17.3836  14508.3  119.804
 17.5816  14137.2  118.737
 17.7796  14397.6  119.757
 17.9776  14579.3  121.278
 18.1756  15693.6  124.503
 18.3736  15353.4  123.683
 18.5716  13905  117.449
 18.7696  14000.3  117.432
 18.9676  13483  115.047
 19.1656  13417.9  115.317
 19.3636  13404.4  115.467
 19.5616  13343.3  115.354
 19.7596  13219.1  114.236
 19.9576  13884.9  117.138
 20.1556  13227  114.843
 20.3536  13027.2  113.358
 20.5516  12638.8  112.091
 20.7496  12494.9  111.297
 20.9476  12725.7  112.162
 21.1456  12970.2  113.574
 21.3436  12430.2  111.136
 21.5416  12299  110.547
 21.7396  12008.6  109.085
 21.9376  12337.9  110.335
 22.1356  12425.1  111.004
 22.3336  12327  110.698
 22.5316  12226  110.348
 22.7296  12048.1  108.906
 22.9276  11931.2  109.048
 23.1256  12501.2  111.093
 23.3236  12072.7  109.687
 23.5216  11978.3  108.928
 23.7196  11818.6  108.359
 23.9176  11777.2  107.716
 24.1156  11711.8  107.883
 24.3136  11660.9  108.454
 24.5116  11380.6  106.683
 24.7096  11467.5  106.906
 24.9076  11017.4  104.799
 25.1056  10909  104.49
 25.3036  10733.3  103.428
 25.5016  10888.7  104.201
 25.6996  10761.5  103.177
 25.8976  10865.5  104.102
 26.0956  10742.5  103.533
 26.2936  10552.5  102.279
 26.4916  10661.9  102.679
 26.6896  10337.1  101.392
 26.8876  10082.7  99.9891
 27.0856  10234.8  100.755
 27.2836  10049.5  99.7776
 27.4816  10173.1  100.327
 27.6796  9889.99  99.2855
 27.8776  10166.7  100.515
 28.0756  9874.21  99.3509
 28.2736  9911.73  99.1221
 28.4716  9491.26  97.0418
 28.6696  9587.35  97.3852
 28.8676  9467.06  97.1118
 29.0656  9299.7  96.231
 29.2636  9288.89  95.887
 29.4616  9189.25  95.6445
 29.6596  9394.3  96.2777
 29.8576  9193.2  95.91
 30.0556  9406.96  96.8963
 30.2536  9275.58  96.0177
 30.4516  9177.53  95.1445
 30.6496  9012.58  94.0177
 30.8476  8953.51  94.1362
 31.0456  9021.74  94.4581
 31.2436  9014.99  93.7061
 31.4416  8862.66  93.106
 31.6396  9248.12  95.1551
 31.8376  8953.78  93.1846
 32.0356  8831.77  93.1011
 32.2336  8807.87  92.3674
 32.4316  8730.65  92.3694
 32.6296  8666.13  91.7962
 32.8276  8694.26  91.78
 33.0256  8628.12  91.5145
 33.2236  8609.84  91.5545
 33.4216  8578.88  91.0914
 33.6196  8526.19  91.1064
 33.8176  8477.22  90.993
 34.0156  8378.97  90.0852
 34.2136  8346.4  89.9493
 34.4116  8348.44  90.1198
 34.6096  8386.4  90.1997
 34.8076  8251.28  89.8647
 35.0056  8322.64  89.9529
 35.2036  8200.63  89.4968
 35.4016  8228.74  89.5803
 35.5996  8175.43  89.3174
 35.7976  8048.23  88.8797
 35.9956  8142.8  89.0569
 36.1936  8184.16  89.158
 36.3916  7959.22  88.0989
 36.5896  8138.04  90.4973
 36.7876  8105.84  89.288
 36.9856  7950.42  88.4528
 37.1836  8049.93  88.1175
 37.3816  7956.43  87.9576
 37.5796  7829.84  88.9329
 37.7776  7711.25  86.6591
 37.9756  7814.99  87.1224
 38.1736  7988.32  88.2769
 38.3716  7898.74  88.0621
 38.5696  7744.72  87.5811
 38.7676  7571.9  86.1224
 38.9656  7650.61  86.2116
 39.1636  7532.73  85.7652
 39.3616  7727.99  86.8471
 39.5596  7578.35  86.821
 39.7576  7469.57  85.5771
 39.9556  7803.03  87.1224
 40.1536  7766.41  87.1077
 40.3516  7773.34  87.1732
 40.5496  7785.37  87.2689
 40.7476  7740.55  87.2377
 40.9456  7676.57  86.6334
 41.1436  7667.86  86.308
 41.3416  7651.72  86.5542
 41.5396  7677.95  86.5118
 41.7376  7686.5  86.8212
 41.9356  7610.39  86.245
 42.1336  7644.64  86.5819
 42.3316  7579.38  86.4151
 42.5296  7528.22  85.6461
 42.7276  7590.69  86.2355
 42.9256  7672.2  86.5648
 43.1236  7505.4  85.7299
 43.3216  7471.19  85.3943
 43.5196  7459.93  85.2893
 43.7176  7322.1  84.881
 43.9156  7471.68  85.6642
 44.1136  7309.94  84.2934
 44.3116  7458.63  85.1478
 44.5096  7333.9  84.7495
 44.7076  7249.12  84.1891
 44.9056  7259.5  84.0975
 45.1036  7147.54  83.0799
 45.3016  7181.03  83.762
 45.4996  7122.25  83.3634
 45.6976  7017.48  82.9196
 45.8956  7149.4  83.531
 46.0936  7206.09  83.6269
 46.2916  7166.91  83.6179
 46.4896  7093.74  83.2276
 46.6876  7018.7  83.4816
 46.8856  6982.69  82.5313
 47.0836  6896.21  82.263
 47.2816  6816.53  81.6782
 47.4796  6929.82  82.4427
 47.6776  6809.05  82.6508
 47.8756  6871.1  82.2144
 48.0736  6870.5  82.6525
 48.2716  6647.98  81.1322
 48.4696  6871.95  82.0935
 48.6676  6678.61  81.4913
 48.8656  6784.57  81.873
 49.0636  6856.24  82.2509
 49.2616  6649.96  81.0467
 49.4596  6717.19  81.013
 49.6576  6614.44  80.6233
 49.8556  6606.83  80.5896
 50.0536  6618.62  81.0892
 50.2516  6550.6  80.7876
 50.4496  6590.71  80.7284
 50.6476  6495.95  79.8278
 50.8456  6476.82  79.7875
 51.0436  6411.59  79.8332
 51.2416  6363.89  79.2082
 51.4396  6247.55  78.8753
 51.6376  6306.89  79.0746
 51.8356  6297.24  78.6672
 52.0336  6182.18  78.4084
 52.2316  6208.98  78.9173
 52.4296  6349.01  79.4939
 52.6276  6275.39  79.1534
 52.8256  6236.59  78.472
 53.0236  6159.38  78.6275
 53.2216  6166.19  78.6891
 53.4196  6057.34  77.934
 53.6176  6044.73  78.3148
 53.8156  6024.67  77.8579
 54.0136  6093.57  78.4775
 54.2116  6076.86  78.0325
 54.4096  6157.76  78.6126
 54.6076  6013.64  78.0217
 54.8056  5951.37  77.4118
 55.0036  5941.45  77.5983
 55.2016  5992.83  77.5369
 55.3996  5937.76  77.2335
 55.5976  5956.08  77.534
 55.7956  6034.15  77.8619
 55.9936  5936.22  77.3529
 56.1916  5911.8  77.2066
 56.3896  5908.42  77.1908
 56.5876  5820.76  77.1464
 56.7856  5935.87  77.3901
 56.9836  5796.48  76.2732
 57.1816  5962.8  77.7299
 57.3796  5949.59  77.4562
 57.5776  5911.82  77.1386
 57.7756  5872.78  77.5011
 57.9736  5896.5  77.3369
 58.1716  5853.18  77.2888
 58.3696  5844.5  77.0032
 58.5676  5911.12  76.922
 58.7656  5894.98  77.474
 58.9636  5998.4  78.1752
 59.1616  5912.17  77.7407
 59.3596  5964.11  77.3378
 59.5576  6055.47  77.9845
 59.7556  5937.79  77.6377
 59.9536  6012.38  78.023
 60.1516  5965.11  78.5591
 60.1996  0.0000000E+00  0.0000000E+00