File: docs/examples/opeando_xrd/IS17_D/Data/IS17_D/17_Db_f00063.xye
# /beamlines/bl04/projects/cycle2025-II/20250340211-lsimonelli/DATA/IS17_D/17_Db_f00063.xye : mythproc.py merge -s 0.006 -l 0.5 -f /beamlines/bl04/inhouse/ff/FlatField/ff_20Nov2024rod8mm60s_17keV.raw -b True -c true -o xye /beamlines/bl04/projects/cycle2025-II/20250340211-lsimonelli/DATA/IS17_D/17_Db_00063.dat
# IsMon = [6742327, 6747054, 6753849]  IsPos = [-1.5000, -2.4884, -3.4988]
# Wave = 0.4962  CalPath /beamlines/bl04/projects/cycle2025-II/20250340211-lsimonelli/DATA/Align/Si_Pos1_25keV_f00001.cal
# Date = 2025-09-24_11:15:29 Dt = 4.8000  Bin = 0.0060  <imon> = 6747743 +/- 4729 (Min/Max) 6742327 / 6753849
# icurr 248.8958  mocoIn 1.6991E-05  mocoOut 0.7975  i15 7.06856e+06  imon 6.74774e+06  i7 3.0000  iEMpd_timer 4.8000  iEMpd_1 3.4147E-08  iEMpd_2 7.8256E-08  iEMpd_3 1.7971E-08  iEMpd_4 4.8662E-08  iEMhp_timer 4.8000  iEMhp_1 4.8652E-06  iEMhp_2 -2.4307E-08  iEMhp_3 -2.4618E-08  iEMhp_4 -2.0237E-08
#      9776
 1.7416  69395.9  263.612
 1.9396  47908.1  219.322
 2.1376  34893.3  187.163
 2.3356  31496.7  177.447
 2.5336  30098.2  174.074
 2.7316  26672.2  163.956
 2.9296  25613.9  160.831
 3.1276  25051.1  158.594
 3.3256  24366.3  156.062
 3.5236  25879.1  160.637
 3.7216  23915.7  155.646
 3.9196  23493.1  153.466
 4.1176  23272.5  152.552
 4.3156  24204  155.714
 4.5136  26688.5  162.504
 4.7116  27704.8  166.701
 4.9096  26821.2  163.466
 5.1076  26519.9  163.132
 5.3056  26685.2  163.328
 5.5036  26345.7  162.223
 5.7016  26770.2  163.481
 5.8996  27317.9  164.381
 6.0976  28223.7  168.506
 6.2956  28301.2  168.058
 6.4936  29093.9  169.611
 6.6916  29358.9  171.364
 6.8896  30287  173.9
 7.0876  31497  178.018
 7.2856  30932.5  175.533
 7.4836  31734.4  177.147
 7.6816  32483.4  179.73
 7.8796  33420.2  182.295
 8.0776  35237.8  188.167
 8.2756  36802.1  190.902
 8.4736  37132.2  191.577
 8.6716  36423  190.374
 8.8696  37687.7  194.176
 9.0676  36374.7  190.083
 9.2656  35447.1  188.347
 9.4636  34308  183.734
 9.6616  33456.1  182.161
 9.8596  32892.7  180.138
 10.0576  30921.5  175.313
 10.2556  30165.4  173.621
 10.4536  30370.6  173.799
 10.6516  29648.2  171.932
 10.8496  27342  164.491
 11.0476  26739.8  162.69
 11.2456  26563.9  162.69
 11.4436  26794.6  162.553
 11.6416  25714.9  159.583
 11.8396  24600  156.303
 12.0376  24039  154.13
 12.2356  23876.8  154.037
 12.4336  23957.2  153.842
 12.6316  23702.9  153.299
 12.8296  23950.6  153.7
 13.0276  24125.3  154.457
 13.2256  24088.1  154.714
 13.4236  23947.2  154.033
 13.6216  24310.8  155.208
 13.8196  26754.1  162.269
 14.0176  23517.4  152.703
 14.2156  23125.1  150.471
 14.4136  21967.5  148.031
 14.6116  21617.7  146.053
 14.8096  20985.7  143.868
 15.0076  20164.8  144.934
 15.2056  18937.4  136.279
 15.4036  18272.3  134.681
 15.6016  17999.2  132.768
 15.7996  17383  130.73
 15.9976  17108.4  132.606
 16.1956  16830.5  129.424
 16.3936  16399.4  126.943
 16.5916  16260.4  127.042
 16.7896  16210.6  126.901
 16.9876  16120.9  128.018
 17.1856  15903.8  125.545
 17.3836  15456.5  123.686
 17.5816  15050.3  122.525
 17.7796  15114.2  122.714
 17.9776  14806.7  122.207
 18.1756  15018.8  121.819
 18.3736  14772.9  121.304
 18.5716  14294.4  119.083
 18.7696  14360  118.918
 18.9676  14165.5  117.904
 19.1656  13739  116.688
 19.3636  13797.3  117.144
 19.5616  13682  116.818
 19.7596  14072.3  117.881
 19.9576  14571.6  119.991
 20.1556  13586.3  116.369
 20.3536  13473.7  115.285
 20.5516  13241.7  114.73
 20.7496  13065.7  113.822
 20.9476  13164.1  114.095
 21.1456  12896.2  113.229
 21.3436  12900.1  113.211
 21.5416  12685  112.276
 21.7396  12500.8  111.301
 21.9376  12348.9  110.386
 22.1356  12687.9  112.185
 22.3336  12164.3  109.96
 22.5316  12271.9  110.526
 22.7296  12179.8  109.485
 22.9276  11870.1  108.738
 23.1256  12430.9  110.747
 23.3236  12462.5  111.484
 23.5216  12386.1  110.781
 23.7196  12347.8  110.794
 23.9176  12397.8  110.551
 24.1156  12158.9  109.929
 24.3136  11709.6  108.696
 24.5116  11819.9  108.724
 24.7096  11735.3  108.156
 24.9076  11529.7  107.238
 25.1056  11194.3  106.114
 25.3036  10909.7  104.262
 25.5016  10970.7  104.593
 25.6996  10922.1  103.944
 25.8976  10932.9  104.432
 26.0956  10885.5  104.195
 26.2936  10880.3  103.85
 26.4916  10926.1  103.928
 26.6896  10629.6  102.802
 26.8876  10588.4  102.47
 27.0856  10422.4  101.705
 27.2836  10364.4  101.327
 27.4816  10337.4  101.129
 27.6796  10132  100.487
 27.8776  10438.4  101.856
 28.0756  10031.4  100.122
 28.2736  9994.71  99.5265
 28.4716  9841.1  98.8076
 28.6696  9774.6  98.325
 28.8676  9700.14  98.3039
 29.0656  9674.87  98.1497
 29.2636  9649.75  97.8227
 29.4616  9301.78  96.1985
 29.6596  9312.77  95.8308
 29.8576  9107.54  95.4375
 30.0556  9243.41  96.014
 30.2536  9339.86  96.3199
 30.4516  9401.22  96.285
 30.6496  9547.69  96.7761
 30.8476  9404.11  96.4827
 31.0456  9460.72  96.7511
 31.2436  9346.34  95.4354
 31.4416  9225.71  95.0113
 31.6396  9383.77  95.8639
 31.8376  9258  94.7358
 32.0356  9283.93  95.4633
 32.2336  9146.12  94.1499
 32.4316  8890.68  93.2011
 32.6296  8868.23  92.9249
 32.8276  8947.54  93.1255
 33.0256  8839.93  92.6301
 33.2236  8767.02  92.3928
 33.4216  8766.12  92.0549
 33.6196  8762.05  92.3396
 33.8176  8748.63  92.4331
 34.0156  8512.88  90.8138
 34.2136  8778.66  92.2452
 34.4116  8390.28  90.3368
 34.6096  8568.06  91.1694
 34.8076  8404.56  90.7152
 35.0056  8445.29  90.5997
 35.2036  8638.34  91.8706
 35.4016  8311.72  90.0131
 35.5996  8222.45  89.5717
 35.7976  8445.39  91.0458
 35.9956  8389.8  90.395
 36.1936  8378.44  90.1996
 36.3916  8228.77  89.5758
 36.5896  8321.35  91.074
 36.7876  7916.93  88.2114
 36.9856  7969.82  88.5335
 37.1836  7987.95  87.7506
 37.3816  7802.34  87.0738
 37.5796  7962.95  89.6964
 37.7776  8056.05  88.6018
 37.9756  8117.82  88.824
 38.1736  7935.35  88
 38.3716  8072.13  89.0257
 38.5696  7885.94  88.3662
 38.7676  7870.16  87.8119
 38.9656  7942.9  87.8443
 39.1636  7989.77  88.3786
 39.3616  7879.22  87.6917
 39.5596  7724.57  87.6574
 39.7576  7827.3  87.6186
 39.9556  7819.15  87.2123
 40.1536  7904.57  87.8818
 40.3516  7933.55  88.0498
 40.5496  7820.8  87.684
 40.7476  7999.94  88.6883
 40.9456  7855.13  87.6369
 41.1436  7947.75  87.8766
 41.3416  7814.33  87.455
 41.5396  7844.79  87.4396
 41.7376  7836.86  87.6538
 41.9356  7826.36  87.4483
 42.1336  7944.98  88.2669
 42.3316  7790.64  87.5955
 42.5296  7824.52  87.3114
 42.7276  7831.81  87.5889
 42.9256  7703.15  86.7474
 43.1236  7726.03  86.977
 43.3216  7737.22  86.7886
 43.5196  7634.03  86.2831
 43.7176  7622.11  86.592
 43.9156  7434.32  85.4253
 44.1136  7413.35  84.8628
 44.3116  7541.08  85.5988
 44.5096  7366.92  84.9159
 44.7076  7457.97  85.3677
 44.9056  7709.22  86.6758
 45.1036  7589.27  85.6162
 45.3016  7517.86  85.7132
 45.4996  7402.54  84.9966
 45.6976  7417.11  85.2436
 45.8956  7472.86  85.4127
 46.0936  7570.81  85.7273
 46.2916  7602.79  86.1292
 46.4896  7595.93  86.1128
 46.6876  7419.62  85.8344
 46.8856  7402.47  84.9725
 47.0836  7372.38  85.0668
 47.2816  7327.56  84.676
 47.4796  7449.39  85.4835
 47.6776  7273.38  85.4158
 47.8756  7290.97  84.6973
 48.0736  7350.46  85.4948
 48.2716  7170.65  84.2516
 48.4696  7328.94  84.7693
 48.6676  7411.19  85.8422
 48.8656  7452.89  85.8015
 49.0636  7442.29  85.7032
 49.2616  7236.1  84.5288
 49.4596  7285.28  84.3796
 49.6576  7282.21  84.5846
 49.8556  7221.96  84.2608
 50.0536  7314.06  85.2517
 50.2516  7232.96  84.8983
 50.4496  7134.68  83.9834
 50.6476  7390.31  85.1505
 50.8456  7243.61  84.3907
 51.0436  6991.6  83.3417
 51.2416  7015.56  83.146
 51.4396  6847.06  82.5519
 51.6376  6990.07  83.2349
 51.8356  6981.2  82.7949
 52.0336  6881.17  82.7245
 52.2316  6898.83  83.1902
 52.4296  6955.91  83.2247
 52.6276  6783.58  82.2954
 52.8256  6957.83  82.9075
 53.0236  6966.68  83.6327
 53.2216  6905.82  83.2792
 53.4196  6972.76  83.5858
 53.6176  6806.39  83.1107
 53.8156  6858.54  83.0939
 54.0136  6575.55  81.511
 54.2116  6698.48  81.9124
 54.4096  6581.9  81.2647
 54.6076  6513.71  81.1707
 54.8056  6431.64  80.4428
 55.0036  6616.6  81.8816
 55.2016  6499.04  80.7124
 55.3996  6349.53  79.8446
 55.5976  6414.4  80.4417
 55.7956  6447.23  80.4612
 55.9936  6475.46  80.7651
 56.1916  6358.93  80.0727
 56.3896  6225.98  79.205
 56.5876  6255.28  79.9518
 56.7856  6204.06  79.1278
 56.9836  6317.01  79.6169
 57.1816  6393.89  80.4848
 57.3796  6228.67  79.231
 57.5776  6270.35  79.3952
 57.7756  6116.05  79.0675
 57.9736  6116.23  78.7417
 58.1716  6010.87  78.305
 58.3696  5852.8  77.0363
 58.5676  5902.92  76.8439
 58.7656  5965.67  77.9173
 58.9636  5817.92  76.9755
 59.1616  5927.46  77.8199
 59.3596  5867.85  76.6862
 59.5576  6010.92  77.6729
 59.7556  5853.4  77.06
 59.9536  5796.54  76.5858
 60.1516  5924.71  78.2682
 60.1996  0.0000000E+00  0.0000000E+00