File: docs/examples/opeando_xrd/IS17_D/Data/IS17_D/17_Da_f00020.xye
# /beamlines/bl04/projects/cycle2025-II/20250340211-lsimonelli/DATA/IS17_D/17_Da_f00020.xye : mythproc.py merge -s 0.006 -l 0.5 -f /beamlines/bl04/inhouse/ff/FlatField/ff_20Nov2024rod8mm60s_17keV.raw -b True -c true -o xye /beamlines/bl04/projects/cycle2025-II/20250340211-lsimonelli/DATA/IS17_D/17_Da_00020.dat
# IsMon = [6758792, 6763405, 6762744]  IsPos = [-1.5000, -2.4885, -3.4986]
# Wave = 0.4962  CalPath /beamlines/bl04/projects/cycle2025-II/20250340211-lsimonelli/DATA/Align/Si_Pos1_25keV_f00001.cal
# Date = 2025-09-23_23:08:35 Dt = 4.8000  Bin = 0.0060  <imon> = 6761647 +/- 2037 (Min/Max) 6758792 / 6763405
# icurr 250.5329  mocoIn 1.7087E-05  mocoOut 0.8019  i15 7.07226e+06  imon 6.76165e+06  i7 4.3333  iEMpd_timer 4.8000  iEMpd_1 3.6771E-08  iEMpd_2 7.9486E-08  iEMpd_3 1.7717E-08  iEMpd_4 4.7797E-08  iEMhp_timer 4.8000  iEMhp_1 4.8945E-06  iEMhp_2 -2.5855E-08  iEMhp_3 -2.3770E-08  iEMhp_4 -2.0970E-08
#      9776
 1.7416  68272.7  261.421
 1.9396  44323.2  210.907
 2.1376  31000.4  176.379
 2.3356  27413.6  165.515
 2.5336  28005.3  167.88
 2.7316  24298.6  156.453
 2.9296  23152  152.883
 3.1276  22544.1  150.433
 3.3256  22284.4  149.228
 3.5236  24057.8  155.015
 3.7216  22238.8  150.1
 3.9196  21785.3  147.813
 4.1176  21477.4  146.55
 4.3156  22902.2  151.484
 4.5136  25883.1  160.029
 4.7116  26640.8  163.479
 4.9096  25763.3  160.215
 5.1076  25272.6  159.25
 5.3056  25764.4  160.419
 5.5036  25387  159.252
 5.7016  25769.1  160.4
 5.8996  26281.1  161.218
 6.0976  26798.1  164.208
 6.2956  27449.8  165.527
 6.4936  28234.7  167.094
 6.6916  28419.4  168.614
 6.8896  29686.7  172.189
 7.0876  30446.6  175.025
 7.2856  30008.4  172.915
 7.4836  30748.3  174.38
 7.6816  31403.2  176.751
 7.8796  32845.4  180.735
 8.0776  36325.5  191.065
 8.2756  36778  190.869
 8.4736  36634.4  190.306
 8.6716  35972.7  189.199
 8.8696  36983.2  192.344
 9.0676  35849.8  188.742
 9.2656  33769.4  183.852
 9.4636  33147.4  180.591
 9.6616  32539.7  179.69
 9.8596  31489.3  176.246
 10.0576  29680.6  171.749
 10.2556  28708  169.34
 10.4536  31597.8  177.251
 10.6516  32735.3  180.626
 10.8496  26628  162.333
 11.0476  26265  161.182
 11.2456  28160.7  167.506
 11.4436  25411.8  158.311
 11.6416  25010.4  157.403
 11.8396  23618  153.162
 12.0376  23484.6  152.347
 12.2356  24638  156.504
 12.4336  23769  153.241
 12.6316  22706.4  150.038
 12.8296  23194.7  151.281
 13.0276  23711.5  153.125
 13.2256  23314.4  152.209
 13.4236  23619.8  152.969
 13.6216  23454.3  152.459
 13.8196  24171.7  154.532
 14.0176  23243.9  151.819
 14.2156  22486.5  148.395
 14.4136  21523.4  146.527
 14.6116  21165.4  144.527
 14.8096  20491.9  142.188
 15.0076  19638.8  142.952
 15.2056  19153.1  137.068
 15.4036  18492.7  135.505
 15.6016  17910.7  132.45
 15.7996  17647.5  131.754
 15.9976  16634  130.809
 16.1956  16365  127.652
 16.3936  15716.1  124.296
 16.5916  15790.4  125.211
 16.7896  15871  125.585
 16.9876  15587.2  125.886
 17.1856  15399.6  123.519
 17.3836  14740.6  120.757
 17.5816  14534.2  120.387
 17.7796  14509.3  120.218
 17.9776  14578.5  121.284
 18.1756  15433.1  123.473
 18.3736  15323  123.545
 18.5716  13998.7  117.837
 18.7696  13987  117.376
 18.9676  13527.9  115.249
 19.1656  13649.1  116.297
 19.3636  13514.2  115.925
 19.5616  13466.4  115.885
 19.7596  13499.7  115.452
 19.9576  13832.1  116.907
 20.1556  13385.8  115.521
 20.3536  13094  113.641
 20.5516  12898  113.23
 20.7496  12523.3  111.435
 20.9476  12806  112.529
 21.1456  13105.6  114.156
 21.3436  12600  111.891
 21.5416  12536.7  111.613
 21.7396  12293.7  110.37
 21.9376  12195.3  109.703
 22.1356  12555.2  111.455
 22.3336  12480.3  111.36
 22.5316  12423.3  111.207
 22.7296  12243  109.78
 22.9276  12010.3  109.383
 23.1256  12452.1  110.852
 23.3236  12187  110.233
 23.5216  12183.2  109.885
 23.7196  12057.2  109.476
 23.9176  11894.9  108.286
 24.1156  11840.3  108.497
 24.3136  11587.7  108.114
 24.5116  11641  107.893
 24.7096  11200.1  105.651
 24.9076  11147.3  105.43
 25.1056  10979  104.811
 25.3036  10706.7  103.289
 25.5016  10813.5  103.839
 25.6996  10822  103.466
 25.8976  10865.7  104.111
 26.0956  10855.5  104.078
 26.2936  10547.2  102.236
 26.4916  10768.8  103.182
 26.6896  10355.7  101.48
 26.8876  10231.4  100.734
 27.0856  10326.8  101.199
 27.2836  10126.3  100.312
 27.4816  10257.4  100.742
 27.6796  9864.22  99.1536
 27.8776  10090.5  100.146
 28.0756  9842.71  99.1856
 28.2736  9875.57  98.9435
 28.4716  9788.53  98.5542
 28.6696  9754  98.2242
 28.8676  9600.56  97.7959
 29.0656  9449.48  97.0015
 29.2636  9435.82  96.6495
 29.4616  9339.69  96.4047
 29.6596  9455.95  96.574
 29.8576  9335.35  96.6336
 30.0556  9378.49  96.7274
 30.2536  9452.05  96.9073
 30.4516  9153.47  95.0422
 30.6496  9149.41  94.7529
 30.8476  9051.35  94.6728
 31.0456  9144.66  95.1249
 31.2436  9126.83  94.309
 31.4416  8868.85  93.1299
 31.6396  9213.73  94.9762
 31.8376  8977.06  93.3087
 32.0356  9012.95  94.0469
 32.2336  8946.12  93.0942
 32.4316  8634.32  91.849
 32.6296  8717.84  92.0685
 32.8276  8716.08  91.8961
 33.0256  8794.51  92.3887
 33.2236  8644.44  91.7457
 33.4216  8659.35  91.5126
 33.6196  8536.25  91.1503
 33.8176  8624.37  91.7698
 34.0156  8338.27  89.8695
 34.2136  8459.34  90.5676
 34.4116  8364.78  90.2031
 34.6096  8433.34  90.4558
 34.8076  8225.48  89.7262
 35.0056  8417.63  90.4672
 35.2036  8251.65  89.7751
 35.4016  8278.34  89.8408
 35.5996  8243.73  89.6869
 35.7976  8204.15  89.7421
 35.9956  8285.94  89.8356
 36.1936  8214.25  89.3155
 36.3916  8045.82  88.5719
 36.5896  8226.23  90.9937
 36.7876  8079.23  89.1239
 36.9856  7960.79  88.494
 37.1836  7986.09  87.7499
 37.3816  8010.26  88.2435
 37.5796  7902.67  89.3516
 37.7776  7823.07  87.3102
 37.9756  7786.86  86.9945
 38.1736  8004.87  88.3963
 38.3716  7954.97  88.3936
 38.5696  7753.23  87.6287
 38.7676  7496.68  85.6832
 38.9656  7584.7  85.8365
 39.1636  7757.16  87.0342
 39.3616  7750.99  86.963
 39.5596  7587.89  86.8744
 39.7576  7667.85  86.7138
 39.9556  7722.3  86.6641
 40.1536  7826.59  87.453
 40.3516  7781.51  87.2857
 40.5496  7799.33  87.3517
 40.7476  7750.58  87.3019
 40.9456  7814.6  87.4033
 41.1436  7802.83  87.0721
 41.3416  7713.2  86.8923
 41.5396  7694.71  86.6073
 41.7376  7579.76  86.2121
 41.9356  7603.24  86.2055
 42.1336  7685.99  86.8243
 42.3316  7608.89  86.5785
 42.5296  7587.81  85.9838
 42.7276  7713.44  86.9304
 42.9256  7643.05  86.3971
 43.1236  7480.32  85.5875
 43.3216  7591.56  86.0768
 43.5196  7484.01  85.4255
 43.7176  7462.2  85.6852
 43.9156  7309.3  84.7078
 44.1136  7359.59  84.5631
 44.3116  7397.44  84.7922
 44.5096  7362  84.8919
 44.7076  7362.41  84.8261
 44.9056  7210.57  83.8318
 45.1036  7253.67  83.7156
 45.3016  7213.05  83.9722
 45.4996  7134.78  83.4549
 45.6976  7045.54  83.1011
 45.8956  7156.67  83.5746
 46.0936  7270.23  83.998
 46.2916  7081.46  83.1143
 46.4896  7127.21  83.4198
 46.6876  7148.94  84.2353
 46.8856  7016.09  82.8496
 47.0836  7026.66  83.0396
 47.2816  6849.25  81.8638
 47.4796  6960.64  82.6271
 47.6776  6782.31  82.4904
 47.8756  6852.46  82.1071
 48.0736  6890.79  82.7682
 48.2716  6677.65  81.3106
 48.4696  6851.79  81.9656
 48.6676  6742.77  81.882
 48.8656  6810.85  82.0333
 49.0636  6838.24  82.1462
 49.2616  6594.72  80.6971
 49.4596  6689.37  80.8528
 49.6576  6644.07  80.7989
 49.8556  6643.19  80.8138
 50.0536  6649.79  81.2911
 50.2516  6579.95  80.9646
 50.4496  6533.49  80.3668
 50.6476  6555.05  80.1948
 50.8456  6509.51  79.9859
 51.0436  6320.84  79.2503
 51.2416  6489.93  79.9748
 51.4396  6228.78  78.7392
 51.6376  6351.96  79.3431
 51.8356  6362.71  79.0528
 52.0336  6245.64  78.8275
 52.2316  6243.28  79.1524
 52.4296  6300.48  79.2086
 52.6276  6188.53  78.6156
 52.8256  6293.28  78.8493
 53.0236  6165.92  78.6666
 53.2216  6204.19  78.916
 53.4196  5976.31  77.4037
 53.6176  6101.51  78.6758
 53.8156  6075.65  78.1968
 54.0136  6143.16  78.7914
 54.2116  5937.58  77.1432
 54.4096  6105.87  78.2723
 54.6076  6004.08  77.9618
 54.8056  6019.72  77.8549
 55.0036  5972.55  77.8039
 55.2016  5979.43  77.4621
 55.3996  6036.01  77.8673
 55.5976  6072.87  78.2919
 55.7956  5974.61  77.4773
 55.9936  6004.01  77.7991
 56.1916  6007.59  77.8336
 56.3896  5967.79  77.5661
 56.5876  5914.24  77.7613
 56.7856  5965.23  77.5851
 56.9836  5848.12  76.6183
 57.1816  5963.42  77.7413
 57.3796  5932.29  77.3091
 57.5776  5973.57  77.5339
 57.7756  5862.89  77.4321
 57.9736  5969.6  77.8157
 58.1716  5948.66  77.9193
 58.3696  5848.69  77.0052
 58.5676  6006.45  77.5165
 58.7656  5947.17  77.7972
 58.9636  6005.78  78.2179
 59.1616  5923.39  77.7994
 59.3596  6010.17  77.6405
 59.5576  5950.69  77.3115
 59.7556  6096.04  78.6701
 59.9536  6072.32  78.4156
 60.1516  6094.31  79.41
 60.1996  0.0000000E+00  0.0000000E+00