File: docs/examples/opeando_xrd/IS17_D/Data/IS17_D/17_Db_f00015.xye
# /beamlines/bl04/projects/cycle2025-II/20250340211-lsimonelli/DATA/IS17_D/17_Db_f00015.xye : mythproc.py merge -s 0.006 -l 0.5 -f /beamlines/bl04/inhouse/ff/FlatField/ff_20Nov2024rod8mm60s_17keV.raw -b True -c true -o xye /beamlines/bl04/projects/cycle2025-II/20250340211-lsimonelli/DATA/IS17_D/17_Db_00015.dat
# IsMon = [6748517, 6751198, 6747566]  IsPos = [-1.5000, -2.4885, -3.4988]
# Wave = 0.4962  CalPath /beamlines/bl04/projects/cycle2025-II/20250340211-lsimonelli/DATA/Align/Si_Pos1_25keV_f00001.cal
# Date = 2025-09-23_21:51:14 Dt = 4.8000  Bin = 0.0060  <imon> = 6749094 +/- 1538 (Min/Max) 6747566 / 6751198
# icurr 249.9417  mocoIn 1.7057E-05  mocoOut 0.8001  i15 7.06675e+06  imon 6.74909e+06  i7 5.0000  iEMpd_timer 4.8000  iEMpd_1 3.4110E-08  iEMpd_2 7.7819E-08  iEMpd_3 1.7799E-08  iEMpd_4 4.6223E-08  iEMhp_timer 4.8000  iEMhp_1 4.8845E-06  iEMhp_2 -2.6438E-08  iEMhp_3 -2.3914E-08  iEMhp_4 -2.2126E-08
#      9776
 1.7416  67298.1  259.504
 1.9396  46025.3  214.883
 2.1376  33313.9  182.813
 2.3356  30032.4  173.211
 2.5336  30763.6  175.924
 2.7316  25857  161.385
 2.9296  24223.3  156.352
 3.1276  23730.9  154.311
 3.3256  22954.1  151.435
 3.5236  24855.4  157.535
 3.7216  22467.2  150.861
 3.9196  22330.3  149.619
 4.1176  21888.2  147.931
 4.3156  22954.2  151.664
 4.5136  26035  160.495
 4.7116  26729.1  163.745
 4.9096  25698.6  160.003
 5.1076  25393.1  159.611
 5.3056  25330.1  159.15
 5.5036  24815.4  157.518
 5.7016  25129.8  158.394
 5.8996  25646.2  159.273
 6.0976  26514.8  163.311
 6.2956  26699.5  163.251
 6.4936  27560.8  165.083
 6.6916  27891.9  167.021
 6.8896  29014.8  170.204
 7.0876  29968.3  173.63
 7.2856  29465.2  171.321
 7.4836  30290.4  173.064
 7.6816  31010.4  175.617
 7.8796  31640.7  177.409
 8.0776  36037.8  190.325
 8.2756  35870.4  188.523
 8.4736  35375  187.022
 8.6716  34813.1  186.133
 8.8696  36821.3  191.95
 9.0676  35822.1  188.663
 9.2656  33493.2  183.092
 9.4636  32351.3  178.462
 9.6616  31655.9  177.239
 9.8596  31024.7  174.902
 10.0576  29388.1  170.874
 10.2556  28282.4  168.061
 10.4536  33507.1  182.503
 10.6516  34738.5  186.057
 10.8496  25956.3  160.269
 11.0476  25918.8  160.11
 11.2456  29664.7  171.911
 11.4436  25159.6  157.517
 11.6416  24426.9  155.537
 11.8396  23674.3  153.327
 12.0376  22715.6  149.825
 12.2356  24683.3  156.648
 12.4336  23460.5  152.232
 12.6316  22418.5  149.079
 12.8296  22952.6  150.469
 13.0276  22952.6  150.671
 13.2256  22843.2  150.653
 13.4236  23083.8  151.226
 13.6216  23311.9  151.965
 13.8196  26543  161.577
 14.0176  22501.8  149.382
 14.2156  22265.2  147.643
 14.4136  20804.4  144.056
 14.6116  20526.3  142.313
 14.8096  19768.2  139.648
 15.0076  19270.8  141.665
 15.2056  18008.4  132.918
 15.4036  17426.3  131.542
 15.6016  16943.8  128.84
 15.7996  16787.6  128.511
 15.9976  16259.2  129.262
 16.1956  15998.3  126.18
 16.3936  15785.2  124.547
 16.5916  15660.5  124.691
 16.7896  15552.9  124.316
 16.9876  15289.8  124.655
 17.1856  15457.5  123.744
 17.3836  14532.7  119.895
 17.5816  14525.5  120.338
 17.7796  14516.2  120.234
 17.9776  14543.3  121.126
 18.1756  16082.2  126.06
 18.3736  15748  125.234
 18.5716  13900.8  117.425
 18.7696  13865  116.849
 18.9676  13443.8  114.864
 19.1656  13126.5  114.071
 19.3636  13118.1  114.215
 19.5616  13110.3  114.353
 19.7596  13239.6  114.334
 19.9576  13788.4  116.718
 20.1556  12807.9  112.99
 20.3536  12815.6  112.427
 20.5516  12503.7  111.478
 20.7496  12403  110.888
 20.9476  12978.3  113.276
 21.1456  12871.4  113.13
 21.3436  12237.6  110.265
 21.5416  12244.9  110.31
 21.7396  11872.6  108.47
 21.9376  12114.5  109.351
 22.1356  12439.7  111.07
 22.3336  12014.7  109.274
 22.5316  11930  108.994
 22.7296  11670.4  107.186
 22.9276  11536.7  107.218
 23.1256  12032.9  108.993
 23.3236  11980.1  109.315
 23.5216  11955.4  108.846
 23.7196  11919.7  108.847
 23.9176  11830.2  107.986
 24.1156  11645.5  107.594
 24.3136  11597.5  108.133
 24.5116  11691.5  108.108
 24.7096  11540  107.221
 24.9076  11241.3  105.859
 25.1056  10920.2  104.507
 25.3036  10612.1  102.817
 25.5016  10652.7  103.064
 25.6996  10642  102.6
 25.8976  10915.3  104.344
 26.0956  10678.4  103.219
 26.2936  10446  101.748
 26.4916  10819  103.406
 26.6896  10388.7  101.635
 26.8876  10122.5  100.184
 27.0856  10209.3  100.629
 27.2836  9924.87  99.1509
 27.4816  10002.7  99.4804
 27.6796  9873.85  99.1959
 27.8776  10426  101.789
 28.0756  9666.29  98.2908
 28.2736  9771.13  98.4077
 28.4716  9547.42  97.3343
 28.6696  9564.67  97.2695
 28.8676  9430.59  96.9205
 29.0656  9255.46  95.9962
 29.2636  9441.89  96.6798
 29.4616  9034.36  94.8241
 29.6596  8994.33  94.1952
 29.8576  8994.95  94.8636
 30.0556  9111.87  95.3604
 30.2536  8911.49  94.1046
 30.4516  9203.4  95.2927
 30.6496  9070.46  94.3315
 30.8476  9114.9  95.0043
 31.0456  9060.69  94.6761
 31.2436  8994.49  93.6125
 31.4416  8799.06  92.7594
 31.6396  9412.64  95.9849
 31.8376  8999.4  93.3779
 32.0356  9019.24  94.0483
 32.2336  8902.93  92.8631
 32.4316  8587.32  91.5938
 32.6296  8575.03  91.3005
 32.8276  8596.84  91.2806
 33.0256  8517.15  90.9169
 33.2236  8598.09  91.4875
 33.4216  8443.9  90.359
 33.6196  8522.36  91.0647
 33.8176  8429.21  90.7332
 34.0156  8354.36  89.967
 34.2136  8376.43  90.1057
 34.4116  8108.97  88.8135
 34.6096  8359.47  90.058
 34.8076  8157.3  89.3699
 35.0056  8182.64  89.188
 35.2036  8329.72  90.2046
 35.4016  8057.25  88.6318
 35.5996  7967.3  88.1704
 35.7976  8036.51  88.8147
 35.9956  8219.32  89.4746
 36.1936  8295.85  89.728
 36.3916  7991.96  88.2797
 36.5896  8144.27  90.558
 36.7876  7801.7  87.5834
 36.9856  7764.72  87.4059
 37.1836  7792.58  86.6854
 37.3816  7707.76  86.5728
 37.5796  7732.43  88.3886
 37.7776  7854.34  87.4848
 37.9756  7872.02  87.4696
 38.1736  7921.45  87.9323
 38.3716  7877.65  87.9507
 38.5696  7706.18  87.3589
 38.7676  7542.25  85.9401
 38.9656  7574.53  85.7546
 39.1636  7625.2  86.2899
 39.3616  7616.64  86.2007
 39.5596  7557.25  86.6911
 39.7576  7497.34  85.7508
 39.9556  7582.32  85.8785
 40.1536  7669.74  86.5685
 40.3516  7724.64  86.8885
 40.5496  7677.65  86.6544
 40.7476  7738.13  87.2183
 40.9456  7740.05  86.984
 41.1436  7798.8  87.0459
 41.3416  7492.48  85.6395
 41.5396  7650.4  86.3524
 41.7376  7738.73  87.095
 41.9356  7658.66  86.5147
 42.1336  7832.19  87.6311
 42.3316  7490.79  85.8962
 42.5296  7624.56  86.1906
 42.7276  7633.07  86.4755
 42.9256  7626.36  86.3107
 43.1236  7497.71  85.6841
 43.3216  7517.88  85.6487
 43.5196  7445.79  85.199
 43.7176  7460.55  85.676
 43.9156  7322.8  84.7982
 44.1136  7181.12  83.5376
 44.3116  7244.6  83.9251
 44.5096  7211.55  84.0267
 44.7076  7244.68  84.1535
 44.9056  7422.65  85.0573
 45.1036  7339.36  84.2084
 45.3016  7351.43  84.7681
 45.4996  7201.5  83.8461
 45.6976  7145.99  83.6959
 45.8956  7299.97  84.396
 46.0936  7435.82  84.932
 46.2916  7354.54  84.6878
 46.4896  7301.35  84.417
 46.6876  7313.13  85.1971
 46.8856  7162.09  83.5839
 47.0836  7212.25  84.1277
 47.2816  7154.25  83.6672
 47.4796  7060.16  83.2211
 47.6776  7103.13  84.4183
 47.8756  7141.78  83.8227
 48.0736  7116.13  84.1267
 48.2716  7089.95  83.7896
 48.4696  7177.53  83.8981
 48.6676  7156.71  84.3582
 48.8656  7153.87  84.0671
 49.0636  7298  84.8513
 49.2616  7042.94  83.3997
 49.4596  7026.99  82.8668
 49.6576  7001.2  82.9351
 49.8556  6971.49  82.7864
 50.0536  7093.99  83.959
 50.2516  7091  84.0533
 50.4496  6999.33  83.1832
 50.6476  7009.24  82.92
 50.8456  7017.45  83.0499
 51.0436  6786.33  82.1175
 51.2416  6782.06  81.7764
 51.4396  6613.97  81.1493
 51.6376  6854.32  82.4253
 51.8356  6729.91  81.2956
 52.0336  6811.38  82.3182
 52.2316  6638.77  81.6128
 52.4296  6689.56  81.6366
 52.6276  6705.24  81.8392
 52.8256  6724.32  81.5161
 53.0236  6754.35  82.3221
 53.2216  6727.83  82.1753
 53.4196  6628.56  81.5092
 53.6176  6746.81  82.7267
 53.8156  6601.98  81.4944
 54.0136  6335.21  80.0134
 54.2116  6614.01  81.3964
 54.4096  6370.5  79.9395
 54.6076  6394.72  80.4413
 54.8056  6229.58  79.177
 55.0036  6423.2  80.6639
 55.2016  6322.31  79.6308
 55.3996  6171.55  78.7195
 55.5976  6247.72  79.3862
 55.7956  6206.3  78.934
 55.9936  6414.81  80.3905
 56.1916  6183.9  78.9573
 56.3896  6081.41  78.2708
 56.5876  5991.67  78.2452
 56.7856  6121.66  78.6015
 56.9836  6171.22  78.688
 57.1816  6186.49  79.1421
 57.3796  6004.64  77.7813
 57.5776  6059.4  78.0378
 57.7756  5874.11  77.489
 57.9736  5995.87  77.9444
 58.1716  5945.44  77.8972
 58.3696  5747.53  76.3437
 58.5676  5833.06  76.3907
 58.7656  5606.99  75.5518
 58.9636  5769.75  76.6651
 59.1616  5705.71  76.3701
 59.3596  5786.67  76.1979
 59.5576  5770.8  76.1487
 59.7556  5624.6  75.5816
 59.9536  5713.23  76.0764
 60.1516  5771.94  77.2962
 60.1996  0.0000000E+00  0.0000000E+00