File: docs/examples/opeando_xrd/IS17_D/Data/IS17_D/17_Db_f00047.xye
# /beamlines/bl04/projects/cycle2025-II/20250340211-lsimonelli/DATA/IS17_D/17_Db_f00047.xye : mythproc.py merge -s 0.006 -l 0.5 -f /beamlines/bl04/inhouse/ff/FlatField/ff_20Nov2024rod8mm60s_17keV.raw -b True -c true -o xye /beamlines/bl04/projects/cycle2025-II/20250340211-lsimonelli/DATA/IS17_D/17_Db_00047.dat
# IsMon = [6757909, 6762126, 6762090]  IsPos = [-1.5000, -2.4884, -3.4988]
# Wave = 0.4962  CalPath /beamlines/bl04/projects/cycle2025-II/20250340211-lsimonelli/DATA/Align/Si_Pos1_25keV_f00001.cal
# Date = 2025-09-24_06:48:02 Dt = 4.8000  Bin = 0.0060  <imon> = 6760708 +/- 1979 (Min/Max) 6757909 / 6762126
# icurr 250.7072  mocoIn 1.7100E-05  mocoOut 0.8026  i15 7.08498e+06  imon 6.76071e+06  i7 5.0000  iEMpd_timer 4.8000  iEMpd_1 3.4362E-08  iEMpd_2 7.9443E-08  iEMpd_3 1.6784E-08  iEMpd_4 4.9166E-08  iEMhp_timer 4.8000  iEMhp_1 4.8983E-06  iEMhp_2 -2.4621E-08  iEMhp_3 -2.2316E-08  iEMhp_4 -2.0768E-08
#      9776
 1.7416  71499.6  267.526
 1.9396  49704.7  223.349
 2.1376  37134.8  193.044
 2.3356  33237.1  182.248
 2.5336  30786.7  176.019
 2.7316  28649.6  169.896
 2.9296  27307.8  166.032
 3.1276  26796.7  164.009
 3.3256  25683.2  160.199
 3.5236  27169.2  164.57
 3.7216  24958.5  159.005
 3.9196  24303.4  156.094
 4.1176  24253.8  155.731
 4.3156  25268.9  159.119
 4.5136  27449.1  164.799
 4.7116  28395.4  168.769
 4.9096  27570.4  165.728
 5.1076  27484.5  166.06
 5.3056  27380  165.46
 5.5036  27100.4  164.524
 5.7016  27379.8  165.335
 5.8996  28018  166.476
 6.0976  28855.1  170.37
 6.2956  29107.7  170.448
 6.4936  29857.9  171.818
 6.6916  30387.3  174.333
 6.8896  31058.3  176.098
 7.0876  32469.4  180.734
 7.2856  31943.2  178.383
 7.4836  32433.1  179.09
 7.6816  33093.2  181.423
 7.8796  34041.8  184.001
 8.0776  35390  188.591
 8.2756  36924.3  191.25
 8.4736  37778.6  193.255
 8.6716  36965.4  191.79
 8.8696  37742  194.33
 9.0676  36888.8  191.448
 9.2656  35906.1  189.578
 9.4636  34947.1  185.466
 9.6616  34049  183.806
 9.8596  33526  181.84
 10.0576  31447.7  176.765
 10.2556  30718.1  175.165
 10.4536  29479.5  171.201
 10.6516  28635.9  168.942
 10.8496  27522.7  165.043
 11.0476  26641.7  162.391
 11.2456  25708.3  160.041
 11.4436  25664.6  159.087
 11.6416  27339.5  164.552
 11.8396  25288.7  158.471
 12.0376  24526.3  155.698
 12.2356  23957.5  154.291
 12.4336  24204.8  154.634
 12.6316  24066.6  154.461
 12.8296  24055.9  154.031
 13.0276  24414  155.384
 13.2256  24879.6  157.234
 13.4236  24665.8  156.327
 13.6216  25011.6  157.428
 13.8196  27143.5  163.408
 14.0176  23986.5  154.224
 14.2156  23513.4  151.733
 14.4136  22712.1  150.52
 14.6116  22173.4  147.916
 14.8096  21312  144.987
 15.0076  20454.4  145.953
 15.2056  19557.4  138.506
 15.4036  18665.7  136.141
 15.6016  18385  134.197
 15.7996  17694  131.928
 15.9976  17532.6  134.232
 16.1956  17191.7  130.802
 16.3936  16726.8  128.216
 16.5916  16479.4  127.908
 16.7896  16307.4  127.286
 16.9876  16348.2  128.909
 17.1856  16230  126.809
 17.3836  15820.7  125.114
 17.5816  15162.2  122.962
 17.7796  15100  122.63
 17.9776  14548  121.145
 18.1756  14640.5  120.276
 18.3736  14243.1  119.106
 18.5716  14140.7  118.435
 18.7696  14312.3  118.716
 18.9676  14095.7  117.627
 19.1656  13792.6  116.925
 19.3636  13667.6  116.582
 19.5616  13658.2  116.713
 19.7596  13981.5  117.498
 19.9576  13950.9  117.411
 20.1556  14695.4  121.034
 20.3536  14155.7  118.159
 20.5516  13627.3  116.393
 20.7496  13245  114.597
 20.9476  13252.8  114.476
 21.1456  13064.5  113.969
 21.3436  12956.7  113.46
 21.5416  12939.9  113.4
 21.7396  12699.9  112.183
 21.9376  12601  111.518
 22.1356  12851.7  112.899
 22.3336  12579.3  111.822
 22.5316  12281.4  110.579
 22.7296  12395.9  110.464
 22.9276  12440.3  111.329
 23.1256  12464.9  110.918
 23.3236  12901.6  113.44
 23.5216  12768.3  112.487
 23.7196  12670.5  112.229
 23.9176  12498.8  111.004
 24.1156  12311.6  110.615
 24.3136  12046.1  110.231
 24.5116  12168.4  110.294
 24.7096  11711.1  108.009
 24.9076  11496.2  107.068
 25.1056  11292.7  106.568
 25.3036  11091.2  105.122
 25.5016  10963.6  104.557
 25.6996  11075.9  104.672
 25.8976  11014.6  104.813
 26.0956  10915.9  104.354
 26.2936  10836.7  103.634
 26.4916  10999.5  104.28
 26.6896  10910.9  104.166
 26.8876  10787.8  103.43
 27.0856  10492.3  102.057
 27.2836  10405.9  101.523
 27.4816  10299.3  100.945
 27.6796  10231.3  100.97
 27.8776  10471.3  102.007
 28.0756  10065.3  100.299
 28.2736  10082.8  99.974
 28.4716  9869.87  98.9642
 28.6696  9914.85  99.0331
 28.8676  9826.34  98.9399
 29.0656  9714.37  98.3485
 29.2636  9736.64  98.255
 29.4616  9427.03  96.852
 29.6596  9433.78  96.4601
 29.8576  9096.77  95.3902
 30.0556  9304.02  96.3436
 30.2536  9283.65  96.04
 30.4516  9405.53  96.3149
 30.6496  9468.94  96.3857
 30.8476  9548.83  97.2367
 31.0456  9624.09  97.5818
 31.2436  9507.35  96.2503
 31.4416  9408.38  95.9282
 31.6396  9336.04  95.5991
 31.8376  9443.15  95.6853
 32.0356  9239.76  95.198
 32.2336  9337.15  95.1144
 32.4316  8975.48  93.6399
 32.6296  8986.97  93.5337
 32.8276  9096.39  93.8958
 33.0256  8864.44  92.7576
 33.2236  8967.87  93.4403
 33.4216  8935.44  92.9546
 33.6196  8900.43  93.0623
 33.8176  8897.83  93.2208
 34.0156  8803.1  92.3408
 34.2136  8836.31  92.5498
 34.4116  8577.06  91.3421
 34.6096  8609.4  91.3931
 34.8076  8500.59  91.2319
 35.0056  8518.15  90.9925
 35.2036  8870.8  93.0919
 35.4016  8517.86  91.1199
 35.5996  8443.52  90.7663
 35.7976  8519.64  91.4506
 35.9956  8578.01  91.407
 36.1936  8601.78  91.3872
 36.3916  8387.53  90.4388
 36.5896  8302.17  90.964
 36.7876  8116.79  89.3303
 36.9856  7930.33  88.3213
 37.1836  8005.53  87.8557
 37.3816  8094.58  88.7069
 37.5796  8175.59  90.8908
 37.7776  8166.16  89.2026
 37.9756  8138.45  88.9364
 38.1736  8222.44  89.5812
 38.3716  7949.12  88.3479
 38.5696  7994.62  88.9776
 38.7676  7989.84  88.4608
 38.9656  7909.7  87.6471
 39.1636  8078.37  88.8509
 39.3616  7908.69  87.8465
 39.5596  7798.88  88.075
 39.7576  7914.32  88.1022
 39.9556  7905.4  87.6941
 40.1536  8000.51  88.4096
 40.3516  7973.21  88.2727
 40.5496  8008.2  88.716
 40.7476  8074.12  89.0876
 40.9456  8063.91  88.7839
 41.1436  8161.81  89.0499
 41.3416  7943.23  88.1804
 41.5396  7886.34  87.6736
 41.7376  7900.47  88.0066
 41.9356  7908.3  87.9146
 42.1336  8011.71  88.6367
 42.3316  7827.68  87.8027
 42.5296  7879.68  87.6178
 42.7276  7899.68  87.967
 42.9256  7829.45  87.4563
 43.1236  7837.27  87.5768
 43.3216  7939.82  87.9129
 43.5196  7764.48  87.0069
 43.7176  7826.13  87.7461
 43.9156  7544.36  86.0645
 44.1136  7526.38  85.5159
 44.3116  7658.12  86.2774
 44.5096  7608.63  86.3031
 44.7076  7457.32  85.3724
 44.9056  7726.2  86.7776
 45.1036  7724.5  86.389
 45.3016  7600.95  86.2005
 45.4996  7607.59  86.168
 45.6976  7528.5  85.8951
 45.8956  7583.97  86.0273
 46.0936  7688.35  86.3646
 46.2916  7582.23  85.9991
 46.4896  7554.34  85.8642
 46.6876  7529.33  86.4519
 46.8856  7553.31  85.8263
 47.0836  7459.71  85.5579
 47.2816  7391.6  85.0437
 47.4796  7512.95  85.8512
 47.6776  7309.05  85.6367
 47.8756  7467.23  85.7073
 48.0736  7479.64  86.2463
 48.2716  7368.55  85.4118
 48.4696  7408.82  85.2254
 48.6676  7458.46  86.1153
 48.8656  7432.97  85.6911
 49.0636  7503.99  86.0536
 49.2616  7216.29  84.4189
 49.4596  7408.4  85.0852
 49.6576  7333.14  84.8881
 49.8556  7391.71  85.2437
 50.0536  7311.14  85.2405
 50.2516  7324.74  85.4474
 50.4496  7360.52  85.3011
 50.6476  7286.81  84.5451
 50.8456  7342.16  84.9642
 51.0436  7035.45  83.6096
 51.2416  7141.21  83.9037
 51.4396  6999.78  83.4745
 51.6376  7074.74  83.7368
 51.8356  7011.6  82.9866
 52.0336  7095.72  84.0108
 52.2316  6983.96  83.7081
 52.4296  6945.66  83.1769
 52.6276  6993.39  83.5596
 52.8256  7114.83  83.8452
 53.0236  7067.8  84.221
 53.2216  7091.94  84.3748
 53.4196  6964.04  83.5358
 53.6176  7022.04  84.4046
 53.8156  7032.94  84.1288
 54.0136  6722.6  82.4278
 54.2116  6844.07  82.7949
 54.4096  6625.01  81.5259
 54.6076  6579.09  81.5907
 54.8056  6686.42  82.0372
 55.0036  6771.36  82.829
 55.2016  6636.07  81.5467
 55.3996  6511.7  80.8624
 55.5976  6536.42  81.2081
 55.7956  6542.57  81.0417
 55.9936  6581.86  81.4275
 56.1916  6487.01  80.8711
 56.3896  6402.53  80.3299
 56.5876  6467.47  81.2996
 56.7856  6418.51  80.4818
 56.9836  6466.75  80.5546
 57.1816  6509.54  81.1976
 57.3796  6306.46  79.7283
 57.5776  6412.08  80.2714
 57.7756  6274.82  80.0953
 57.9736  6198.06  79.266
 58.1716  6129.87  79.0851
 58.3696  6050.02  78.3262
 58.5676  5998.81  77.4637
 58.7656  6024.1  78.305
 58.9636  6088.6  78.7508
 59.1616  6043.02  78.5891
 59.3596  6039.62  77.8274
 59.5576  6161.42  78.6668
 59.7556  6019.97  78.1761
 59.9536  6210.27  79.2996
 60.1516  6059.28  79.1798
 60.1996  0.0000000E+00  0.0000000E+00