File: docs/examples/opeando_xrd/IS17_D/Data/IS17_D/17_Da_f00152.xye
# /beamlines/bl04/projects/cycle2025-II/20250340211-lsimonelli/DATA/IS17_D/17_Da_f00152.xye : mythproc.py merge -s 0.006 -l 0.5 -f /beamlines/bl04/inhouse/ff/FlatField/ff_20Nov2024rod8mm60s_17keV.raw -b True -c true -o xye /beamlines/bl04/projects/cycle2025-II/20250340211-lsimonelli/DATA/IS17_D/17_Da_00152.dat
# IsMon = [6784141, 6788892, 6791543]  IsPos = [-1.4999, -2.4883, -3.4988]
# Wave = 0.4962  CalPath /beamlines/bl04/projects/cycle2025-II/20250340211-lsimonelli/DATA/Align/Si_Pos1_25keV_f00001.cal
# Date = 2025-09-25_11:57:11 Dt = 4.8000  Bin = 0.0060  <imon> = 6788192 +/- 3062 (Min/Max) 6784141 / 6791543
# icurr 252.8924  mocoIn 1.7247E-05  mocoOut 0.8099  i15 7.10578e+06  imon 6.78819e+06  i7 3.6667  iEMpd_timer 4.8000  iEMpd_1 3.4681E-08  iEMpd_2 7.9564E-08  iEMpd_3 1.7189E-08  iEMpd_4 4.7751E-08  iEMhp_timer 4.8000  iEMhp_1 4.9429E-06  iEMhp_2 -2.5033E-08  iEMhp_3 -2.4028E-08  iEMhp_4 -2.1372E-08
#      9776
 1.7416  70774.6  266.191
 1.9396  46720.4  216.549
 2.1376  33062  182.167
 2.3356  29684.2  172.248
 2.5336  27034.4  164.959
 2.7316  25931.5  161.633
 2.9296  24845.5  158.389
 3.1276  24477.3  156.76
 3.3256  24306.3  155.889
 3.5236  26008.1  161.028
 3.7216  23837.3  155.399
 3.9196  23263.4  152.738
 4.1176  23064  151.869
 4.3156  24413.8  156.395
 4.5136  26828.3  162.928
 4.7116  27784.4  166.95
 4.9096  27297.7  164.911
 5.1076  26931.5  164.399
 5.3056  27392.3  165.507
 5.5036  27208.1  164.846
 5.7016  27778.5  166.536
 5.8996  28432.3  167.69
 6.0976  29068.8  171.024
 6.2956  29546.2  171.728
 6.4936  30001.2  172.243
 6.6916  30476.2  174.61
 6.8896  31379.5  177.036
 7.0876  32203.2  180.077
 7.2856  32142.3  178.954
 7.4836  32642.9  179.753
 7.6816  33410.7  182.312
 7.8796  34970  186.489
 8.0776  36418.2  191.301
 8.2756  38095  194.237
 8.4736  39079.3  196.545
 8.6716  38087.4  194.678
 8.8696  37637.9  194.04
 9.0676  37315.1  192.552
 9.2656  36013.9  189.851
 9.4636  35945.5  188.056
 9.6616  35131.4  186.692
 9.8596  33712.6  182.375
 10.0576  32111.4  178.655
 10.2556  30834.1  175.518
 10.4536  30198.4  173.296
 10.6516  29173.9  170.524
 10.8496  28454.7  167.8
 11.0476  27920.7  166.245
 11.2456  27118  164.371
 11.4436  27454.3  164.545
 11.6416  27118.3  163.896
 11.8396  25330.4  158.622
 12.0376  25430.7  158.549
 12.2356  24696.2  156.656
 12.4336  24631.3  155.992
 12.6316  24399.9  155.532
 12.8296  24600.8  155.804
 13.0276  25199.3  157.862
 13.2256  25143.7  158.059
 13.4236  25031.7  157.478
 13.6216  24891.7  157.064
 13.8196  24954.2  157.016
 14.0176  24603.2  156.189
 14.2156  24075.7  153.549
 14.4136  22910.8  151.173
 14.6116  22655.1  149.521
 14.8096  21961  147.192
 15.0076  20759.5  146.96
 15.2056  20343.5  141.256
 15.4036  19412.5  138.818
 15.6016  19157.5  136.977
 15.7996  18659.9  135.467
 15.9976  17812.9  135.321
 16.1956  17431  131.739
 16.3936  17030.3  129.384
 16.5916  16784.1  129.084
 16.7896  16873.3  129.485
 16.9876  16572.2  129.809
 17.1856  16372.9  127.376
 17.3836  15979.5  125.743
 17.5816  15539.1  124.483
 17.7796  15362  123.709
 17.9776  15191.9  123.806
 18.1756  15341.5  123.091
 18.3736  15071.5  122.532
 18.5716  14872.6  121.467
 18.7696  14889.5  121.103
 18.9676  14533.8  119.458
 19.1656  14529.4  119.994
 19.3636  14472.9  119.973
 19.5616  14286.1  119.356
 19.7596  14364  119.093
 19.9576  14593.7  120.09
 20.1556  14696.8  121.043
 20.3536  13952.7  117.316
 20.5516  13866.6  117.406
 20.7496  13416.8  115.425
 20.9476  13326.1  114.793
 21.1456  13581.1  116.205
 21.3436  13315.7  115.022
 21.5416  13338.1  115.125
 21.7396  12849.7  112.839
 21.9376  13117.6  113.768
 22.1356  13047.1  113.582
 22.3336  13002.4  113.685
 22.5316  13151.2  114.42
 22.7296  12939.1  112.841
 22.9276  12875  113.251
 23.1256  13092.2  113.657
 23.3236  13010.5  113.905
 23.5216  12745.5  112.38
 23.7196  12607.7  111.724
 23.9176  12702.1  111.904
 24.1156  12693.6  112.335
 24.3136  11962.1  109.856
 24.5116  12017.9  109.634
 24.7096  11878.5  108.813
 24.9076  11644.8  107.77
 25.1056  11402.2  107.102
 25.3036  11334  106.271
 25.5016  11352.3  106.394
 25.6996  11331.2  105.872
 25.8976  11243.7  105.91
 26.0956  11243.6  105.916
 26.2936  11104.5  104.907
 26.4916  11301.2  105.714
 26.6896  10997.3  104.579
 26.8876  10866  103.812
 27.0856  10859  103.814
 27.2836  10688.9  102.961
 27.4816  10519.7  102.012
 27.6796  10472.7  102.168
 27.8776  10322.4  101.294
 28.0756  10433.7  102.117
 28.2736  10374.5  101.41
 28.4716  10099.4  100.106
 28.6696  10109.3  99.9971
 28.8676  10014.9  99.8804
 29.0656  9931.54  99.4483
 29.2636  9926.69  99.2185
 29.4616  9891.89  99.21
 29.6596  9907.62  98.8492
 29.8576  9812.8  99.068
 30.0556  9803.72  98.8931
 30.2536  9847.92  98.9127
 30.4516  9611.38  97.3861
 30.6496  9788.03  97.9985
 30.8476  9693.64  97.9742
 31.0456  9509.64  97.0058
 31.2436  9488.37  96.1605
 31.4416  9440.15  96.0992
 31.6396  9471.2  96.3035
 31.8376  9378.79  95.3802
 32.0356  9245.67  95.2635
 32.2336  9199.98  94.4192
 32.4316  9207.16  94.8073
 32.6296  9231.08  94.8075
 32.8276  9193.08  94.3852
 33.0256  9032.7  93.6377
 33.2236  9111.98  94.1942
 33.4216  9163.21  94.1334
 33.6196  9085.02  94.0359
 33.8176  9094.27  94.2515
 34.0156  8947.19  93.1008
 34.2136  8945.11  93.1314
 34.4116  8875.41  93.0222
 34.6096  8770.4  92.2388
 34.8076  8657.4  92.0469
 35.0056  8798.44  92.4906
 35.2036  8759.26  92.4972
 35.4016  8619.45  91.6702
 35.5996  8611.04  91.6689
 35.7976  8571.73  91.7323
 35.9956  8674.44  91.9218
 36.1936  8587.39  91.3285
 36.3916  8483.84  90.9063
 36.5896  8483.97  91.9363
 36.7876  8401.61  90.8807
 36.9856  8325.22  90.4935
 37.1836  8413.25  90.0619
 37.3816  8561.23  91.2195
 37.5796  8387.87  92.0566
 37.7776  8154.61  89.1462
 37.9756  8257.38  89.5776
 38.1736  8373.48  90.4029
 38.3716  8204.01  89.7645
 38.5696  8185.18  90.0365
 38.7676  7833.89  87.6028
 38.9656  7968.62  87.9904
 39.1636  8004.06  88.458
 39.3616  8100.32  88.9074
 39.5596  7901.65  88.6564
 39.7576  8003.03  88.5766
 39.9556  8057.72  88.5312
 40.1536  8281.24  89.9555
 40.3516  8125.12  89.1125
 40.5496  8167.17  89.6073
 40.7476  8193.98  89.757
 40.9456  8135.25  89.1812
 41.1436  8181.72  89.1624
 41.3416  8089.37  88.9523
 41.5396  8028.54  88.3917
 41.7376  8157.12  89.4331
 41.9356  8079.13  88.8658
 42.1336  8037.06  88.7866
 42.3316  7918.57  88.3192
 42.5296  8074.62  88.699
 42.7276  8019.69  88.6418
 42.9256  8027.11  88.5489
 43.1236  7918.3  88.0569
 43.3216  7923.43  87.8336
 43.5196  7794.34  87.1849
 43.7176  7776.86  87.4745
 43.9156  7737.47  87.1518
 44.1136  7793.9  87.0173
 44.3116  7685.48  86.4211
 44.5096  7718.27  86.9206
 44.7076  7755.18  87.057
 44.9056  7676.46  86.4934
 45.1036  7467.47  84.9364
 45.3016  7483.9  85.5287
 45.4996  7491.27  85.5117
 45.6976  7280.29  84.4605
 45.8956  7444.55  85.2441
 46.0936  7464.73  85.3096
 46.2916  7509.32  85.5986
 46.4896  7492.56  85.5372
 46.6876  7436.12  85.9321
 46.8856  7356.88  84.7209
 47.0836  7249.65  84.3544
 47.2816  7270.87  84.3445
 47.4796  7212.39  84.1152
 47.6776  7187.29  84.919
 47.8756  7204.71  84.1864
 48.0736  7234.17  84.8228
 48.2716  7081.72  83.7685
 48.4696  7169.84  83.8729
 48.6676  7075.38  83.8818
 48.8656  7135.03  83.9671
 49.0636  7066.25  83.5116
 49.2616  6976.26  82.8946
 49.4596  6880.62  82.1505
 49.6576  6892.29  82.2979
 49.8556  6959.8  82.7151
 50.0536  6901.66  82.814
 50.2516  6987.54  83.4634
 50.4496  6855.06  82.3196
 50.6476  6953.65  82.5973
 50.8456  6914.49  82.4401
 51.0436  6800.22  82.1974
 51.2416  6748.06  81.5521
 51.4396  6556.65  80.7764
 51.6376  6639.88  81.1196
 51.8356  6657.65  80.8606
 52.0336  6571.46  80.8524
 52.2316  6513  80.8398
 52.4296  6520.3  80.5787
 52.6276  6635.66  81.3953
 52.8256  6630.58  80.9289
 53.0236  6425.86  80.3158
 53.2216  6391.77  80.1354
 53.4196  6325.13  79.6362
 53.6176  6380.08  80.4641
 53.8156  6391.42  80.2035
 54.0136  6422.35  80.5578
 54.2116  6438.76  80.3341
 54.4096  6341.91  79.7729
 54.6076  6278.52  79.7215
 54.8056  6425.85  80.4388
 55.0036  6339.86  80.2897
 55.2016  6332.44  79.7953
 55.3996  6358.39  79.9183
 55.5976  6278.16  79.5996
 55.7956  6304.19  79.5841
 55.9936  6275.92  79.5422
 56.1916  6359.68  80.0786
 56.3896  6283.88  79.5953
 56.5876  6208.6  79.6657
 56.7856  6185.16  78.9957
 56.9836  6201  78.8922
 57.1816  6172.9  79.0958
 57.3796  6270.79  79.5131
 57.5776  6146.71  78.6438
 57.7756  6178.3  79.4877
 57.9736  6233.03  79.5142
 58.1716  6227.4  79.7064
 58.3696  6195.83  79.2599
 58.5676  6213.43  78.842
 58.7656  6211.86  79.5009
 58.9636  6283.79  80.0041
 59.1616  6212.77  79.6719
 59.3596  6316.03  79.5785
 59.5576  6441.21  80.4215
 59.7556  6129.45  78.8724
 59.9536  6254.86  79.5723
 60.1516  6316.36  80.8304
 60.1996  0.0000000E+00  0.0000000E+00