File: docs/examples/opeando_xrd/IS17_D/Data/IS17_D/17_Db_f00077.xye
# /beamlines/bl04/projects/cycle2025-II/20250340211-lsimonelli/DATA/IS17_D/17_Db_f00077.xye : mythproc.py merge -s 0.006 -l 0.5 -f /beamlines/bl04/inhouse/ff/FlatField/ff_20Nov2024rod8mm60s_17keV.raw -b True -c true -o xye /beamlines/bl04/projects/cycle2025-II/20250340211-lsimonelli/DATA/IS17_D/17_Db_00077.dat
# IsMon = [6759208, 6756389, 6756394]  IsPos = [-1.4999, -2.4884, -3.4988]
# Wave = 0.4962  CalPath /beamlines/bl04/projects/cycle2025-II/20250340211-lsimonelli/DATA/Align/Si_Pos1_25keV_f00001.cal
# Date = 2025-09-24_15:09:42 Dt = 4.8000  Bin = 0.0060  <imon> = 6757330 +/- 1328 (Min/Max) 6756389 / 6759208
# icurr 250.3141  mocoIn 1.7076E-05  mocoOut 0.8012  i15 7.08011e+06  imon 6.75733e+06  i7 5.6667  iEMpd_timer 4.8000  iEMpd_1 3.2190E-08  iEMpd_2 7.9203E-08  iEMpd_3 1.5711E-08  iEMpd_4 4.5973E-08  iEMhp_timer 4.8000  iEMhp_1 4.8890E-06  iEMhp_2 -2.4780E-08  iEMhp_3 -2.4508E-08  iEMhp_4 -2.1148E-08
#      9776
 1.7416  68608.6  261.971
 1.9396  47110.4  217.36
 2.1376  34430.4  185.818
 2.3356  31140.5  176.345
 2.5336  30332.1  174.654
 2.7316  26503.6  163.392
 2.9296  25105.5  159.184
 3.1276  24645.2  157.251
 3.3256  23770.1  154.106
 3.5236  25471.1  159.333
 3.7216  23416.8  154.009
 3.9196  23194  152.489
 4.1176  22995.5  151.616
 4.3156  23920.5  154.821
 4.5136  26839.5  162.963
 4.7116  27457.9  165.962
 4.9096  26584.8  162.742
 5.1076  26122.6  161.886
 5.3056  26239  161.982
 5.5036  26034.9  161.263
 5.7016  26595.4  162.946
 5.8996  27047.1  163.56
 6.0976  27791.9  167.19
 6.2956  27984.9  167.139
 6.4936  28615.4  168.212
 6.6916  28972.8  170.227
 6.8896  30232.3  173.728
 7.0876  30816.6  176.154
 7.2856  30806.6  175.179
 7.4836  31373.9  176.137
 7.6816  31904  178.137
 7.8796  33017.3  181.247
 8.0776  36542.9  191.668
 8.2756  36958.1  191.366
 8.4736  36818.3  190.815
 8.6716  36110.1  189.591
 8.8696  37634.4  194.033
 9.0676  36803.5  191.191
 9.2656  35125.3  187.487
 9.4636  33931.8  182.754
 9.6616  33063.3  181.117
 9.8596  32672.2  179.484
 10.0576  30535  174.195
 10.2556  29693.5  172.209
 10.4536  33227.2  181.751
 10.6516  34542.5  185.52
 10.8496  27284.1  164.313
 11.0476  27078.7  163.713
 11.2456  29100.4  170.279
 11.4436  26057.6  160.303
 11.6416  25615.5  159.258
 11.8396  24467  155.863
 12.0376  23716.4  153.107
 12.2356  25505.9  159.205
 12.4336  24325.4  155.023
 12.6316  23518.3  152.685
 12.8296  23900.8  153.538
 13.0276  23906.5  153.773
 13.2256  23704.8  153.473
 13.4236  23951.9  154.044
 13.6216  24208  154.857
 13.8196  27144.4  163.405
 14.0176  23392.5  152.313
 14.2156  23131.8  150.499
 14.4136  21767.9  147.354
 14.6116  21459.3  145.508
 14.8096  20765.5  143.123
 15.0076  20080.7  144.604
 15.2056  18975.4  136.445
 15.4036  18252.5  134.645
 15.6016  17710.4  131.735
 15.7996  17446.1  131.018
 15.9976  17039.1  132.343
 16.1956  16733.8  129.04
 16.3936  16330  126.667
 16.5916  16367.2  127.455
 16.7896  16267.6  127.119
 16.9876  15933  127.257
 17.1856  15791.1  125.077
 17.3836  15321.5  123.113
 17.5816  15002.2  122.297
 17.7796  15217.8  123.105
 17.9776  14999.7  123.012
 18.1756  15732.9  124.679
 18.3736  15978  126.137
 18.5716  14324.8  119.195
 18.7696  14511.6  119.546
 18.9676  14155.3  117.861
 19.1656  13721.2  116.626
 19.3636  13764  117.004
 19.5616  13854.9  117.555
 19.7596  13883.4  117.076
 19.9576  14456  119.511
 20.1556  13512.8  116.063
 20.3536  13359.2  114.794
 20.5516  13088.5  114.058
 20.7496  12889.3  113.126
 20.9476  13328.5  114.789
 21.1456  13272.6  114.884
 21.3436  12758.3  112.586
 21.5416  12706  112.37
 21.7396  12389.9  110.805
 21.9376  12637.5  111.683
 22.1356  12735.1  112.236
 22.3336  12458.1  111.3
 22.5316  12373.6  111.01
 22.7296  12158.1  109.412
 22.9276  12042.1  109.55
 23.1256  12544.4  111.297
 23.3236  12466.7  111.501
 23.5216  12419.8  110.934
 23.7196  12325  110.46
 23.9176  12448.9  110.759
 24.1156  12019.3  109.29
 24.3136  11860.2  109.361
 24.5116  11996  109.503
 24.7096  11767.9  108.267
 24.9076  11674.7  107.862
 25.1056  11170.5  105.979
 25.3036  10906.8  104.249
 25.5016  11061.1  105.013
 25.6996  10985.2  104.243
 25.8976  11460.3  106.908
 26.0956  10920  104.379
 26.2936  10871.9  103.808
 26.4916  11166.8  105.058
 26.6896  10772.1  103.494
 26.8876  10541.4  102.231
 27.0856  10504  102.117
 27.2836  10265.2  100.83
 27.4816  10303.1  100.958
 27.6796  10192.9  100.778
 27.8776  10691.4  103.064
 28.0756  10013.6  100.047
 28.2736  10182.3  100.457
 28.4716  9866.72  98.9417
 28.6696  9915.27  99.0324
 28.8676  9783.87  98.7268
 29.0656  9613.59  97.8376
 29.2636  9702.99  98.084
 29.4616  9291.13  96.1685
 29.6596  9275.8  95.6663
 29.8576  9192.75  95.9069
 30.0556  9307.48  96.3821
 30.2536  9366.2  96.4836
 30.4516  9599.97  97.3016
 30.6496  9413.72  96.0947
 30.8476  9396.24  96.4479
 31.0456  9423.02  96.5407
 31.2436  9375.26  95.5647
 31.4416  9279.96  95.2636
 31.6396  9553.37  96.6948
 31.8376  9512.96  96.0199
 32.0356  9188.42  94.9314
 32.2336  9275.57  94.785
 32.4316  8909.33  93.3001
 32.6296  8736.62  92.23
 32.8276  8844.59  92.5861
 33.0256  8840.13  92.6205
 33.2236  8765.91  92.3753
 33.4216  8738.27  91.9316
 33.6196  8740.17  92.2312
 33.8176  8800.18  92.7081
 34.0156  8563.42  91.0858
 34.2136  8750.73  92.092
 34.4116  8453.51  90.6899
 34.6096  8547.09  91.0627
 34.8076  8509.13  91.2763
 35.0056  8492  90.8498
 35.2036  8684.33  92.102
 35.4016  8398.69  90.4941
 35.5996  8387.66  90.4678
 35.7976  8302.5  90.2623
 35.9956  8551.69  91.2629
 36.1936  8400.57  90.3007
 36.3916  8250.38  89.692
 36.5896  8391.26  91.4469
 36.7876  8030.68  88.8704
 36.9856  7969.52  88.5558
 37.1836  7948.73  87.559
 37.3816  7983.2  88.1089
 37.5796  8015.44  89.9844
 37.7776  8226.52  89.5129
 37.9756  8145.81  88.9622
 38.1736  8178.38  89.332
 38.3716  8041.23  88.8524
 38.5696  7872.53  88.282
 38.7676  7803.83  87.4196
 38.9656  8014.34  88.2092
 39.1636  7949.57  88.126
 39.3616  7995.28  88.3266
 39.5596  7733.32  87.6954
 39.7576  7707.57  86.9401
 39.9556  7818.56  87.2105
 40.1536  7997.34  88.3954
 40.3516  7909.98  87.9164
 40.5496  7904.86  88.1338
 40.7476  7905.84  88.1552
 40.9456  7993.48  88.4009
 41.1436  8026.54  88.2994
 41.3416  7804.48  87.4112
 41.5396  7915  87.829
 41.7376  7820.65  87.5652
 41.9356  7707.68  86.7949
 42.1336  7875.84  87.8734
 42.3316  7745.4  87.3503
 42.5296  7905.88  87.76
 42.7276  7906.61  88.0112
 42.9256  7754.76  87.0258
 43.1236  7703.07  86.8455
 43.3216  7858.19  87.4608
 43.5196  7655.2  86.388
 43.7176  7734.28  87.2295
 43.9156  7480.25  85.7124
 44.1136  7522.25  85.5074
 44.3116  7522.74  85.5189
 44.5096  7372.45  84.9706
 44.7076  7433.09  85.2468
 44.9056  7582.43  85.959
 45.1036  7554.79  85.4281
 45.3016  7500.63  85.6146
 45.4996  7477.55  85.4268
 45.6976  7354.46  84.8965
 45.8956  7484.09  85.4467
 46.0936  7683.35  86.5856
 46.2916  7527.8  85.6757
 46.4896  7564.69  85.9215
 46.6876  7458.4  86.0415
 46.8856  7470.46  85.365
 47.0836  7410.8  85.2723
 47.2816  7231.57  84.1186
 47.4796  7440.19  85.4345
 47.6776  7197.78  84.975
 47.8756  7294.77  84.7152
 48.0736  7318.96  85.3091
 48.2716  7192.89  84.3913
 48.4696  7371.88  85.0241
 48.6676  7382.95  85.6787
 48.8656  7303.72  84.9506
 49.0636  7441.49  85.6806
 49.2616  7140.49  83.9792
 49.4596  7316.91  84.5626
 49.6576  7166.55  83.911
 49.8556  7215.61  84.2203
 50.0536  7183.8  84.4862
 50.2516  7243.56  84.9643
 50.4496  7260.31  84.7178
 50.6476  7185.65  83.9561
 50.8456  7243.92  84.3885
 51.0436  6991.72  83.3621
 51.2416  6852.5  82.2033
 51.4396  6846.51  82.5699
 51.6376  6954.57  83.0343
 51.8356  6993.39  82.8853
 52.0336  6896.71  82.8221
 52.2316  6884.93  83.1106
 52.4296  6962.08  83.274
 52.6276  6796.61  82.3863
 52.8256  6981.45  83.0503
 53.0236  6960.24  83.5678
 53.2216  6930.43  83.4303
 53.4196  6869.71  82.9651
 53.6176  6947.68  83.948
 53.8156  6855.84  83.052
 54.0136  6549.7  81.3534
 54.2116  6707.82  81.9645
 54.4096  6554.85  81.0909
 54.6076  6584.25  81.6214
 54.8056  6476.06  80.7225
 55.0036  6410.22  80.7196
 55.2016  6603.23  81.444
 55.3996  6357.28  79.8935
 55.5976  6364.75  80.1396
 55.7956  6434.53  80.3676
 55.9936  6477.19  80.7605
 56.1916  6287.9  79.6198
 56.3896  6263.81  79.4618
 56.5876  6343.33  80.5127
 56.7856  6255.38  79.4455
 56.9836  6307.87  79.5405
 57.1816  6399.34  80.4889
 57.3796  6241.5  79.3142
 57.5776  6229.92  79.0945
 57.7756  6158.78  79.3438
 57.9736  6194.46  79.2359
 58.1716  6098.31  78.8774
 58.3696  5901.89  77.3719
 58.5676  5927.59  77.0162
 58.7656  5850.41  77.1811
 58.9636  5940.77  77.8052
 59.1616  6007.08  78.3634
 59.3596  6009.85  77.6497
 59.5576  5953.47  77.3412
 59.7556  5944.22  77.696
 59.9536  6123.53  78.7573
 60.1516  5841.98  77.7604
 60.1996  0.0000000E+00  0.0000000E+00