File: docs/examples/opeando_xrd/IS17_D/Data/IS17_D/17_Da_f00119.xye
# /beamlines/bl04/projects/cycle2025-II/20250340211-lsimonelli/DATA/IS17_D/17_Da_f00119.xye : mythproc.py merge -s 0.006 -l 0.5 -f /beamlines/bl04/inhouse/ff/FlatField/ff_20Nov2024rod8mm60s_17keV.raw -b True -c true -o xye /beamlines/bl04/projects/cycle2025-II/20250340211-lsimonelli/DATA/IS17_D/17_Da_00119.dat
# IsMon = [6780555, 6779283, 6780614]  IsPos = [-1.5000, -2.4884, -3.4988]
# Wave = 0.4962  CalPath /beamlines/bl04/projects/cycle2025-II/20250340211-lsimonelli/DATA/Align/Si_Pos1_25keV_f00001.cal
# Date = 2025-09-25_02:43:27 Dt = 4.8000  Bin = 0.0060  <imon> = 6780151 +/- 614 (Min/Max) 6779283 / 6780614
# icurr 251.7074  mocoIn 1.7179E-05  mocoOut 0.8057  i15 7.09696e+06  imon 6.78015e+06  i7 3.3333  iEMpd_timer 4.8000  iEMpd_1 3.4987E-08  iEMpd_2 7.8487E-08  iEMpd_3 1.6563E-08  iEMpd_4 4.8197E-08  iEMhp_timer 4.8000  iEMhp_1 4.9185E-06  iEMhp_2 -2.4542E-08  iEMhp_3 -2.4688E-08  iEMhp_4 -2.1105E-08
#      9776
 1.7416  70914.1  266.365
 1.9396  46020.4  214.854
 2.1376  33257.3  182.645
 2.3356  30002.1  173.111
 2.5336  27996.8  167.814
 2.7316  26677.6  163.935
 2.9296  25416.7  160.182
 3.1276  24603.8  157.142
 3.3256  24405  156.173
 3.5236  26102.7  161.317
 3.7216  23855.3  155.461
 3.9196  23243.8  152.68
 4.1176  23280.7  152.566
 4.3156  24702.3  157.322
 4.5136  26906.5  163.17
 4.7116  27948.1  167.445
 4.9096  27219.4  164.678
 5.1076  26994  164.575
 5.3056  27497.4  165.832
 5.5036  26970.9  164.135
 5.7016  27524.4  165.775
 5.8996  28221.2  167.062
 6.0976  28803.4  170.227
 6.2956  29287.9  170.988
 6.4936  30041.1  172.343
 6.6916  30407.7  174.411
 6.8896  31151.3  176.384
 7.0876  32463.2  180.718
 7.2856  32173.3  179.041
 7.4836  32752.1  179.971
 7.6816  33593.4  182.812
 7.8796  34980.4  186.543
 8.0776  36549.6  191.677
 8.2756  38239.5  194.643
 8.4736  38788  195.84
 8.6716  38309.2  195.272
 8.8696  38113.3  195.227
 9.0676  37129  192.064
 9.2656  36724.9  191.715
 9.4636  36260.2  188.869
 9.6616  35277.1  187.087
 9.8596  33957.7  183.018
 10.0576  32059.5  178.507
 10.2556  30904.7  175.698
 10.4536  30015  172.751
 10.6516  29035  170.1
 10.8496  28312.5  167.373
 11.0476  27583.6  165.239
 11.2456  27005.4  164.037
 11.4436  27193.5  163.764
 11.6416  27458.9  164.922
 11.8396  25519.3  159.2
 12.0376  25281.9  158.094
 12.2356  24965.1  157.516
 12.4336  24804.9  156.542
 12.6316  24345  155.35
 12.8296  24718.3  156.174
 13.0276  25319.9  158.249
 13.2256  25434.4  158.976
 13.4236  25330.2  158.407
 13.6216  24963  157.276
 13.8196  24986.1  157.118
 14.0176  24665.9  156.398
 14.2156  24149.9  153.78
 14.4136  23057.6  151.659
 14.6116  22726.5  149.76
 14.8096  22089.8  147.634
 15.0076  20744  146.916
 15.2056  20315.7  141.183
 15.4036  19625  139.601
 15.6016  19164.4  137.027
 15.7996  18735.9  135.764
 15.9976  17841.9  135.451
 16.1956  17329.9  131.35
 16.3936  16697.8  128.107
 16.5916  16740.5  128.91
 16.7896  16949.6  129.773
 16.9876  16758.8  130.533
 17.1856  16522.4  127.951
 17.3836  15814  125.075
 17.5816  15500.3  124.317
 17.7796  15238.2  123.197
 17.9776  15193.4  123.813
 18.1756  15029.9  121.853
 18.3736  14866.8  121.696
 18.5716  14698  120.755
 18.7696  14670  120.207
 18.9676  14407.2  118.925
 19.1656  14441  119.635
 19.3636  14306.6  119.284
 19.5616  14278.5  119.332
 19.7596  14421.3  119.326
 19.9576  14784.3  120.873
 20.1556  15071.2  122.582
 20.3536  13994.1  117.485
 20.5516  13754.4  116.932
 20.7496  13367.5  115.125
 20.9476  13444.8  115.293
 21.1456  13507.3  115.897
 21.3436  13290.9  114.918
 21.5416  13206.8  114.545
 21.7396  13025.5  113.608
 21.9376  13060.4  113.527
 22.1356  13064.8  113.819
 22.3336  13084.6  114.054
 22.5316  13011.2  113.82
 22.7296  12991.2  113.091
 22.9276  12926.4  113.495
 23.1256  13270.4  114.453
 23.3236  13163.1  114.557
 23.5216  12859  112.879
 23.7196  12683.3  112.268
 23.9176  12677.5  111.774
 24.1156  12342.2  110.763
 24.3136  12064.3  110.311
 24.5116  12175.4  110.339
 24.7096  11817.6  108.52
 24.9076  11510.5  107.126
 25.1056  11477.2  107.44
 25.3036  11387.2  106.524
 25.5016  11287.7  106.089
 25.6996  11252.5  105.503
 25.8976  11237.7  105.872
 26.0956  11357.2  106.454
 26.2936  11217.1  105.441
 26.4916  11210.3  105.286
 26.6896  10958.2  104.397
 26.8876  10784.7  103.416
 27.0856  10788.3  103.489
 27.2836  10650.8  102.716
 27.4816  10573.2  102.269
 27.6796  10421.1  101.917
 27.8776  10433.7  101.832
 28.0756  10439.9  102.152
 28.2736  10294.2  101.019
 28.4716  10238.8  100.792
 28.6696  10179.9  100.351
 28.8676  10127.6  100.445
 29.0656  10034.7  99.9606
 29.2636  9943.31  99.2947
 29.4616  9766.88  98.5947
 29.6596  9900.73  98.8311
 29.8576  9728.11  98.6565
 30.0556  9728.56  98.5322
 30.2536  9855.62  98.9647
 30.4516  9659.02  97.6221
 30.6496  9810.54  98.1068
 30.8476  9693.25  97.967
 31.0456  9542.38  97.1585
 31.2436  9615.42  96.7907
 31.4416  9307.57  95.4075
 31.6396  9400.27  95.932
 31.8376  9536.89  96.1671
 32.0356  9417.96  96.1333
 32.2336  9322.97  95.0269
 32.4316  9193.49  94.7812
 32.6296  9085.31  94.0592
 32.8276  9258.62  94.7166
 33.0256  9116.84  94.0716
 33.2236  9122.47  94.2388
 33.4216  9267.5  94.6717
 33.6196  9109.18  94.1641
 33.8176  9117.54  94.3639
 34.0156  9055.34  93.6583
 34.2136  8987.61  93.3414
 34.4116  8902.8  93.0594
 34.6096  8789.27  92.3468
 34.8076  8796.5  92.7861
 35.0056  8734.44  92.1531
 35.2036  8646.46  91.8939
 35.4016  8670.72  91.9513
 35.5996  8594.29  91.5771
 35.7976  8522.96  91.4756
 35.9956  8667.18  91.8844
 36.1936  8552.45  91.14
 36.3916  8521.39  91.1571
 36.5896  8373.93  91.3345
 36.7876  8597.04  91.9449
 36.9856  8364.43  90.7192
 37.1836  8412.93  90.0745
 37.3816  8480.31  90.803
 37.5796  8286.4  91.494
 37.7776  8303.86  89.9459
 37.9756  8265.86  89.6148
 38.1736  8393.73  90.5108
 38.3716  8182.6  89.641
 38.5696  8228.82  90.2786
 38.7676  7969.3  88.3489
 38.9656  8032.35  88.3319
 39.1636  8043.3  88.66
 39.3616  8181.09  89.3465
 39.5596  8001.67  89.2148
 39.7576  8019.67  88.6787
 39.9556  8082.89  88.6714
 40.1536  8229.33  89.6712
 40.3516  8201.93  89.534
 40.5496  8089.29  89.1861
 40.7476  8257.51  90.1064
 40.9456  8258.39  89.8498
 41.1436  8069.6  88.5416
 41.3416  8035.03  88.6916
 41.5396  8176.48  89.2721
 41.7376  8096.92  89.1062
 41.9356  8012.85  88.4981
 42.1336  8190.2  89.6243
 42.3316  8090.81  89.281
 42.5296  8060.38  88.6193
 42.7276  8079.68  88.973
 42.9256  7975.69  88.2682
 43.1236  7900.56  87.9583
 43.3216  7966.02  88.067
 43.5196  7922.37  87.8915
 43.7176  7843.52  87.8498
 43.9156  7807.47  87.5626
 44.1136  7716.81  86.6012
 44.3116  7647.86  86.2264
 44.5096  7745.79  87.0889
 44.7076  7661.76  86.5454
 44.9056  7666.53  86.4301
 45.1036  7569.3  85.5042
 45.3016  7591.87  86.1392
 45.4996  7490.37  85.5018
 45.6976  7410.08  85.2182
 45.8956  7578.1  85.9978
 46.0936  7549.88  85.5894
 46.2916  7595.23  86.0764
 46.4896  7492.95  85.5313
 46.6876  7363.99  85.5027
 46.8856  7322.97  84.5236
 47.0836  7267.49  84.4436
 47.2816  7270.72  84.3499
 47.4796  7339.88  84.8472
 47.6776  7237.64  85.2135
 47.8756  7241.11  84.3931
 48.0736  7202.02  84.6318
 48.2716  7097.49  83.8305
 48.4696  7121.63  83.5739
 48.6676  7098.57  84.0159
 48.8656  7218.29  84.4474
 49.0636  7195.22  84.2445
 49.2616  6937.84  82.7755
 49.4596  6955.14  82.4451
 49.6576  6970.42  82.7625
 49.8556  6957.16  82.7002
 50.0536  6886.98  82.7317
 50.2516  6961.03  83.3046
 50.4496  6964.3  82.9746
 50.6476  6915.32  82.3687
 50.8456  6914.03  82.4521
 51.0436  6830.44  82.3926
 51.2416  6836.55  82.0979
 51.4396  6630.73  81.252
 51.6376  6634.15  81.0965
 51.8356  6707.53  81.1734
 52.0336  6646.34  81.3089
 52.2316  6572.84  81.2075
 52.4296  6650.21  81.3667
 52.6276  6685.35  81.7066
 52.8256  6619.32  80.8473
 53.0236  6501.24  80.7774
 53.2216  6474.65  80.6233
 53.4196  6383.75  80.0025
 53.6176  6373.87  80.4142
 53.8156  6363.17  80.0137
 54.0136  6428.79  80.6078
 54.2116  6420.22  80.2127
 54.4096  6431.97  80.3365
 54.6076  6313.92  79.948
 54.8056  6309.13  79.705
 55.0036  6359.97  80.2913
 55.2016  6323.29  79.6547
 55.3996  6356.86  79.9152
 55.5976  6391.69  80.3182
 55.7956  6387.16  80.1076
 55.9936  6285.31  79.5991
 56.1916  6325.68  79.8651
 56.3896  6338.26  79.9475
 56.5876  6240.34  79.8789
 56.7856  6304.71  79.7677
 56.9836  6173.35  78.7106
 57.1816  6254.83  79.6119
 57.3796  6306.06  79.7358
 57.5776  6283.22  79.5199
 57.7756  6180.91  79.5109
 57.9736  6286.7  79.8574
 58.1716  6216.98  79.6562
 58.3696  6242.44  79.5688
 58.5676  6278.67  79.273
 58.7656  6280.73  79.9617
 58.9636  6274.04  79.9547
 59.1616  6302.66  80.2647
 59.3596  6282.71  79.3845
 59.5576  6342.42  79.8194
 59.7556  6208.87  79.3986
 59.9536  6401.67  80.5178
 60.1516  6146.09  79.7504
 60.1996  0.0000000E+00  0.0000000E+00