File: docs/examples/opeando_xrd/IS17_D/Data/IS17_D/17_Db_f00094.xye
# /beamlines/bl04/projects/cycle2025-II/20250340211-lsimonelli/DATA/IS17_D/17_Db_f00094.xye : mythproc.py merge -s 0.006 -l 0.5 -f /beamlines/bl04/inhouse/ff/FlatField/ff_20Nov2024rod8mm60s_17keV.raw -b True -c true -o xye /beamlines/bl04/projects/cycle2025-II/20250340211-lsimonelli/DATA/IS17_D/17_Db_00094.dat
# IsMon = [6747295, 6748261, 6751129]  IsPos = [-1.4999, -2.4884, -3.4988]
# Wave = 0.4962  CalPath /beamlines/bl04/projects/cycle2025-II/20250340211-lsimonelli/DATA/Align/Si_Pos1_25keV_f00001.cal
# Date = 2025-09-24_19:54:17 Dt = 4.8000  Bin = 0.0060  <imon> = 6748895 +/- 1628 (Min/Max) 6747295 / 6751129
# icurr 249.2571  mocoIn 1.7009E-05  mocoOut 0.7979  i15 7.07083e+06  imon 6.7489e+06  i7 4.3333  iEMpd_timer 4.8000  iEMpd_1 3.3807E-08  iEMpd_2 7.7014E-08  iEMpd_3 1.6366E-08  iEMpd_4 4.6579E-08  iEMhp_timer 4.8000  iEMhp_1 4.8702E-06  iEMhp_2 -2.5332E-08  iEMhp_3 -2.4499E-08  iEMhp_4 -2.1442E-08
#      9776
 1.7416  69855.5  264.409
 1.9396  48212.5  219.938
 2.1376  35610.8  189.025
 2.3356  31653.2  177.837
 2.5336  29640.7  172.697
 2.7316  27152.5  165.402
 2.9296  26088.2  162.284
 3.1276  25504.4  159.991
 3.3256  24738  157.231
 3.5236  26257.8  161.79
 3.7216  24095.2  156.227
 3.9196  23458.7  153.36
 4.1176  23354.4  152.807
 4.3156  24453.3  156.524
 4.5136  26636.4  162.342
 4.7116  27865.9  167.189
 4.9096  27213.1  164.652
 5.1076  26957.3  164.463
 5.3056  26944.5  164.133
 5.5036  26598.9  162.998
 5.7016  27096  164.471
 5.8996  27709  165.554
 6.0976  28456.5  169.182
 6.2956  28430.1  168.453
 6.4936  29258.4  170.086
 6.6916  29663  172.244
 6.8896  30445  174.344
 7.0876  31344.5  177.657
 7.2856  31100.4  176.016
 7.4836  31392  176.187
 7.6816  32122.2  178.727
 7.8796  33054.8  181.309
 8.0776  34076  185.064
 8.2756  35913  188.614
 8.4736  36626  190.294
 8.6716  35792.9  188.736
 8.8696  36568.6  191.265
 9.0676  35748.1  188.441
 9.2656  34967.4  187.055
 9.4636  33742  182.23
 9.6616  33158.8  181.371
 9.8596  32614.6  179.352
 10.0576  30438.8  173.915
 10.2556  29635.3  172.056
 10.4536  28868.7  169.415
 10.6516  28376.2  168.181
 10.8496  26990.8  163.43
 11.0476  26258.4  161.21
 11.2456  25587.1  159.672
 11.4436  25952.9  159.979
 11.6416  25869.2  160.052
 11.8396  24249.5  155.182
 12.0376  23901.2  153.693
 12.2356  23420.8  152.56
 12.4336  23427.6  152.135
 12.6316  23436.2  152.424
 12.8296  23416.6  151.969
 13.0276  23768.8  153.319
 13.2256  24086.8  154.702
 13.4236  23842.1  153.69
 13.6216  24205.5  154.853
 13.8196  26325.2  160.945
 14.0176  23255.9  151.862
 14.2156  22877.5  149.656
 14.4136  21845.3  147.612
 14.6116  21509.9  145.672
 14.8096  20837.3  143.36
 15.0076  19818.3  143.667
 15.2056  18976.3  136.435
 15.4036  18131.7  134.183
 15.6016  17779  131.973
 15.7996  17120.2  129.764
 15.9976  17033.3  132.306
 16.1956  16799.2  129.3
 16.3936  16359.3  126.773
 16.5916  16192.5  126.771
 16.7896  16309.8  127.292
 16.9876  15973.9  127.418
 17.1856  15669.9  124.611
 17.3836  15550.3  124.042
 17.5816  15074.7  122.605
 17.7796  14977  122.14
 17.9776  14595  121.336
 18.1756  14538.7  119.858
 18.3736  14443.6  119.95
 18.5716  14091.9  118.228
 18.7696  14197.7  118.237
 18.9676  13928  116.925
 19.1656  13671.8  116.407
 19.3636  13608.1  116.335
 19.5616  13521.3  116.127
 19.7596  13918.7  117.225
 19.9576  14088.7  117.976
 20.1556  14143.5  118.736
 20.3536  13362.7  114.813
 20.5516  13082.6  114.036
 20.7496  12816.5  112.806
 20.9476  12777.4  112.399
 21.1456  12739.9  112.545
 21.3436  12673.6  112.218
 21.5416  12568.1  111.758
 21.7396  12459.1  111.112
 21.9376  12393.3  110.591
 22.1356  12411.3  110.799
 22.3336  12093.6  109.65
 22.5316  12142.7  109.959
 22.7296  12165.5  109.432
 22.9276  11983.4  109.271
 23.1256  12124.2  109.392
 23.3236  12492.4  111.617
 23.5216  12373.1  110.724
 23.7196  12214.5  109.965
 23.9176  12421.4  110.65
 24.1156  11927.5  108.854
 24.3136  11820.1  109.197
 24.5116  11800.4  108.619
 24.7096  11455.4  106.839
 24.9076  11358.3  106.418
 25.1056  11157.5  105.932
 25.3036  10814  103.801
 25.5016  10899.9  104.25
 25.6996  10754.6  103.144
 25.8976  10898.3  104.258
 26.0956  10554.7  102.605
 26.2936  10631.8  102.655
 26.4916  10958.1  104.065
 26.6896  10593  102.633
 26.8876  10548.9  102.268
 27.0856  10215.7  100.698
 27.2836  10278  100.893
 27.4816  10045.6  99.6922
 27.6796  9996.1  99.8057
 27.8776  10262.1  100.986
 28.0756  9931.31  99.626
 28.2736  9893.52  99.0271
 28.4716  9734.04  98.2634
 28.6696  9665.09  97.7722
 28.8676  9637.59  97.983
 29.0656  9451.02  97.0055
 29.2636  9513.17  97.1143
 29.4616  9157.82  95.4664
 29.6596  9268.96  95.6169
 29.8576  9147.58  95.6607
 30.0556  9228.17  95.9504
 30.2536  9260.31  95.9235
 30.4516  9320.7  95.88
 30.6496  9277.59  95.395
 30.8476  9311.66  96.0192
 31.0456  9337.87  96.1103
 31.2436  9288.77  95.1339
 31.4416  9216.01  94.9408
 31.6396  9129.69  94.5375
 31.8376  9117.44  94.001
 32.0356  9149.75  94.7475
 32.2336  9075.94  93.7713
 32.4316  8749.3  92.4583
 32.6296  8648.01  91.7576
 32.8276  8809.41  92.3999
 33.0256  8564.96  91.1677
 33.2236  8756.97  92.3315
 33.4216  8660.35  91.5027
 33.6196  8634.95  91.6748
 33.8176  8601.16  91.651
 34.0156  8491.41  90.6978
 34.2136  8596.14  91.2773
 34.4116  8355.87  90.1586
 34.6096  8377.94  90.1593
 34.8076  8177.3  89.4796
 35.0056  8243.63  89.5072
 35.2036  8615.14  91.7392
 35.4016  8224.46  89.5457
 35.5996  8212.26  89.505
 35.7976  8261  90.0453
 35.9956  8414.6  90.537
 36.1936  8259.64  89.5368
 36.3916  8143.11  89.1058
 36.5896  8047.34  89.5592
 36.7876  7906.24  88.1684
 36.9856  7776.49  87.465
 37.1836  7912.82  87.3505
 37.3816  7924.7  87.7723
 37.5796  7883.05  89.2415
 37.7776  8074.81  88.6998
 37.9756  8028.45  88.3245
 38.1736  7958.33  88.1276
 38.3716  7900.01  88.0694
 38.5696  7727.65  87.4723
 38.7676  7692.51  86.8051
 38.9656  7787.71  86.9641
 39.1636  7835.52  87.5098
 39.3616  7818.3  87.3447
 39.5596  7578.91  86.8125
 39.7576  7713.93  86.9806
 39.9556  7730.65  86.7187
 40.1536  7881.85  87.757
 40.3516  7860.09  87.6456
 40.5496  7787.84  87.498
 40.7476  7729.93  87.1724
 40.9456  7829.35  87.4852
 41.1436  7835.81  87.2546
 41.3416  7659.87  86.592
 41.5396  7659.04  86.4016
 41.7376  7720.76  87.0045
 41.9356  7713.06  86.8232
 42.1336  7896.8  87.9825
 42.3316  7667  86.8975
 42.5296  7700.92  86.618
 42.7276  7685.74  86.772
 42.9256  7638.82  86.3805
 43.1236  7566.68  86.0713
 43.3216  7624.47  86.1509
 43.5196  7522.07  85.632
 43.7176  7563.22  86.2541
 43.9156  7327.52  84.8215
 44.1136  7269.93  84.0491
 44.3116  7407.09  84.8507
 44.5096  7343.93  84.795
 44.7076  7347.71  84.7473
 44.9056  7519.34  85.6017
 45.1036  7413.43  84.6241
 45.3016  7436.76  85.2527
 45.4996  7396.36  84.9608
 45.6976  7300.91  84.5839
 45.8956  7409.62  85.0397
 46.0936  7591.44  86.0749
 46.2916  7376.43  84.8212
 46.4896  7421.1  85.1117
 46.6876  7340.88  85.3594
 46.8856  7294.36  84.3425
 47.0836  7305.37  84.6674
 47.2816  7292.24  84.4721
 47.4796  7250.74  84.3372
 47.6776  7166.07  84.7851
 47.8756  7344.88  85.0074
 48.0736  7251.37  84.9195
 48.2716  7210.11  84.487
 48.4696  7325.15  84.7417
 48.6676  7168.75  84.426
 48.8656  7216.14  84.432
 49.0636  7327.92  85.0339
 49.2616  7100.62  83.7409
 49.4596  7233.31  84.0809
 49.6576  7185.49  84.0218
 49.8556  7163.55  83.9192
 50.0536  7112.64  84.056
 50.2516  7225.08  84.8624
 50.4496  7125.2  83.93
 50.6476  7089.79  83.3991
 50.8456  7135.48  83.7466
 51.0436  6816.02  82.3002
 51.2416  6791.67  81.8227
 51.4396  6714.86  81.7629
 51.6376  6916.41  82.8041
 51.8356  6909.64  82.3872
 52.0336  6923.71  82.9786
 52.2316  6866.58  82.999
 52.4296  6816.82  82.3957
 52.6276  6726.53  81.9522
 52.8256  6903.76  82.588
 53.0236  6909.69  83.2789
 53.2216  6835.67  82.8614
 53.4196  6938.26  83.396
 53.6176  6783.54  82.9513
 53.8156  6758.27  82.4765
 54.0136  6506.56  81.0779
 54.2116  6689.8  81.858
 54.4096  6542.01  81.0155
 54.6076  6481.8  80.9848
 54.8056  6434.84  80.4633
 55.0036  6326.17  80.1782
 55.2016  6529.04  80.9819
 55.3996  6251.55  79.2343
 55.5976  6408  80.4024
 55.7956  6320.2  79.6478
 55.9936  6451.31  80.6147
 56.1916  6329.26  79.8904
 56.3896  6135.42  78.6233
 56.5876  6160.72  79.3331
 56.7856  6218.14  79.2065
 56.9836  6326.15  79.6723
 57.1816  6261.59  79.6266
 57.3796  6070.71  78.2196
 57.5776  6188.65  78.8508
 57.7756  6102.95  78.9805
 57.9736  6029.78  78.1906
 58.1716  6076.21  78.7394
 58.3696  5860.62  77.0963
 58.5676  5889.42  76.7541
 58.7656  5813.14  76.9248
 58.9636  5715.5  76.2989
 59.1616  5845.79  77.2989
 59.3596  5914.37  77.0126
 59.5576  5801.41  76.3292
 59.7556  5863.65  77.1496
 59.9536  5767.29  76.4142
 60.1516  5714.63  76.8901
 60.1996  0.0000000E+00  0.0000000E+00