File: docs/examples/opeando_xrd/IS17_D/Data/IS17_D/17_Db_f00145.xye
# /beamlines/bl04/projects/cycle2025-II/20250340211-lsimonelli/DATA/IS17_D/17_Db_f00145.xye : mythproc.py merge -s 0.006 -l 0.5 -f /beamlines/bl04/inhouse/ff/FlatField/ff_20Nov2024rod8mm60s_17keV.raw -b True -c true -o xye /beamlines/bl04/projects/cycle2025-II/20250340211-lsimonelli/DATA/IS17_D/17_Db_00145.dat
# IsMon = [6760228, 6760122, 6760897]  IsPos = [-1.4999, -2.4884, -3.4989]
# Wave = 0.4962  CalPath /beamlines/bl04/projects/cycle2025-II/20250340211-lsimonelli/DATA/Align/Si_Pos1_25keV_f00001.cal
# Date = 2025-09-25_10:07:12 Dt = 4.8000  Bin = 0.0060  <imon> = 6760416 +/- 343 (Min/Max) 6760122 / 6760897
# icurr 250.8641  mocoIn 1.7115E-05  mocoOut 0.8031  i15 7.08477e+06  imon 6.76042e+06  i7 4.3333  iEMpd_timer 4.8000  iEMpd_1 3.4266E-08  iEMpd_2 7.8740E-08  iEMpd_3 1.8160E-08  iEMpd_4 4.8337E-08  iEMhp_timer 4.8000  iEMhp_1 4.9003E-06  iEMhp_2 -2.5798E-08  iEMhp_3 -2.3975E-08  iEMhp_4 -2.1746E-08
#      9776
 1.7416  69965.8  264.59
 1.9396  48829.9  221.322
 2.1376  35776.4  189.444
 2.3356  32245.2  179.474
 2.5336  29720  172.909
 2.7316  27367.5  166.044
 2.9296  26217  162.674
 3.1276  25633.5  160.382
 3.3256  24741.3  157.234
 3.5236  26351.7  162.076
 3.7216  24421.6  157.287
 3.9196  23806.5  154.501
 4.1176  23726.3  154.014
 4.3156  24608.1  157.024
 4.5136  27012.7  163.487
 4.7116  28185.2  168.149
 4.9096  27313.9  164.954
 5.1076  27074.4  164.819
 5.3056  27264.2  165.117
 5.5036  27088.2  164.492
 5.7016  27711.8  166.336
 5.8996  28296  167.298
 6.0976  29174  171.299
 6.2956  28996.1  170.124
 6.4936  29683.7  171.315
 6.6916  30100  173.515
 6.8896  30651.5  174.945
 7.0876  31777.9  178.879
 7.2856  31565.5  177.325
 7.4836  32173.7  178.357
 7.6816  32709.9  180.368
 7.8796  33924.6  183.698
 8.0776  35340.4  188.477
 8.2756  36903.4  191.214
 8.4736  37353.4  192.185
 8.6716  36908.2  191.66
 8.8696  37623.1  194.011
 9.0676  36928  191.526
 9.2656  35753.4  189.16
 9.4636  34753.4  184.952
 9.6616  34140.1  184.047
 9.8596  33594  182.018
 10.0576  31677.9  177.412
 10.2556  30924.6  175.752
 10.4536  29961.5  172.584
 10.6516  29488.8  171.435
 10.8496  28138.3  166.872
 11.0476  27320.6  164.438
 11.2456  26918.1  163.766
 11.4436  27249  163.934
 11.6416  26289.7  161.357
 11.8396  25235.5  158.291
 12.0376  24465.8  155.514
 12.2356  24252.8  155.248
 12.4336  24229.3  154.717
 12.6316  24105.4  154.579
 12.8296  24166.2  154.386
 13.0276  24453.9  155.52
 13.2256  24634.6  156.459
 13.4236  24574.5  156.036
 13.6216  24749.8  156.587
 13.8196  27031.1  163.081
 14.0176  24017.6  154.233
 14.2156  23384.4  151.311
 14.4136  22381.6  149.417
 14.6116  22133.4  147.77
 14.8096  21347  145.106
 15.0076  20453.2  145.947
 15.2056  19565.6  138.546
 15.4036  18372.7  135.079
 15.6016  18157.4  133.377
 15.7996  17749.7  132.139
 15.9976  17742.5  135.632
 16.1956  17121.4  130.531
 16.3936  16823.6  128.568
 16.5916  16597  128.348
 16.7896  16731.5  128.924
 16.9876  16456  129.329
 17.1856  16023  126.001
 17.3836  15914.4  125.473
 17.5816  15414.6  123.976
 17.7796  15094.7  122.61
 17.9776  15077.5  123.325
 18.1756  15246.5  122.743
 18.3736  14909.7  121.87
 18.5716  14740.6  120.92
 18.7696  14615.6  119.963
 18.9676  14446.3  119.056
 19.1656  14209.9  118.682
 19.3636  14097.7  118.413
 19.5616  14184.5  118.944
 19.7596  14287.3  118.768
 19.9576  14682.8  120.449
 20.1556  14008.6  118.174
 20.3536  13788.4  116.623
 20.5516  13426.7  115.526
 20.7496  13208.6  114.523
 20.9476  13215.9  114.309
 21.1456  13112.6  114.19
 21.3436  12949.5  113.426
 21.5416  12989.8  113.617
 21.7396  12839.7  112.799
 21.9376  12622.7  111.616
 22.1356  12729.2  112.209
 22.3336  12484.6  111.412
 22.5316  12536.8  111.733
 22.7296  12472.4  110.815
 22.9276  12416.6  111.235
 23.1256  12612  111.582
 23.3236  12800.1  112.986
 23.5216  12652.7  111.962
 23.7196  12555.5  111.487
 23.9176  12604.6  111.455
 24.1156  12295.5  110.543
 24.3136  12068.7  110.324
 24.5116  12071.7  109.863
 24.7096  11762.4  108.258
 24.9076  11727.4  108.121
 25.1056  11349.2  106.834
 25.3036  11148.4  105.397
 25.5016  11123.4  105.314
 25.6996  11086.5  104.723
 25.8976  11168.2  105.536
 26.0956  10947.7  104.502
 26.2936  10954.5  104.197
 26.4916  11200.2  105.209
 26.6896  10845  103.841
 26.8876  10842.5  103.686
 27.0856  10540  102.286
 27.2836  10525.8  102.109
 27.4816  10391.8  101.391
 27.6796  10248.8  101.061
 27.8776  10523.4  102.261
 28.0756  10110.5  100.523
 28.2736  10163.2  100.368
 28.4716  10090  100.061
 28.6696  10005.2  99.4822
 28.8676  9903.73  99.327
 29.0656  9779.15  98.6737
 29.2636  9783.2  98.4876
 29.4616  9433.56  96.8981
 29.6596  9539.51  97.0083
 29.8576  9323.92  96.5833
 30.0556  9261.76  96.1342
 30.2536  9571.37  97.5277
 30.4516  9597.86  97.2989
 30.6496  9580.81  96.9476
 30.8476  9463  96.7884
 31.0456  9637.27  97.639
 31.2436  9520.68  96.3048
 31.4416  9240.02  95.0626
 31.6396  9458.96  96.2301
 31.8376  9408.98  95.4965
 32.0356  9396.3  96.0004
 32.2336  9305.5  94.9354
 32.4316  8991.37  93.7254
 32.6296  8979.53  93.5003
 32.8276  9049.83  93.6554
 33.0256  8889.19  92.8835
 33.2236  9144.33  94.3364
 33.4216  8982.4  93.2007
 33.6196  9005.36  93.605
 33.8176  8900.1  93.2363
 34.0156  8804.73  92.3608
 34.2136  8938.08  93.0738
 34.4116  8541.34  91.1568
 34.6096  8610.9  91.4047
 34.8076  8533.52  91.405
 35.0056  8544.31  91.1387
 35.2036  8747.16  92.4335
 35.4016  8506.6  91.07
 35.5996  8482.12  90.9731
 35.7976  8364.38  90.6132
 35.9956  8632.06  91.6989
 36.1936  8588.67  91.3168
 36.3916  8372.28  90.3582
 36.5896  8339.01  91.1611
 36.7876  8231.16  89.9649
 36.9856  8008.76  88.7584
 37.1836  8136  88.5785
 37.3816  8016.07  88.2823
 37.5796  8183.52  90.9339
 37.7776  8228.27  89.5351
 37.9756  8246.28  89.5172
 38.1736  8342.07  90.2323
 38.3716  8146.74  89.427
 38.5696  7996.85  88.9868
 38.7676  8049.66  88.7902
 38.9656  8036.27  88.3409
 39.1636  7931.91  88.0372
 39.3616  7957.14  88.116
 39.5596  7922  88.7632
 39.7576  7881.78  87.9211
 39.9556  8024.41  88.3505
 40.1536  8017.36  88.5019
 40.3516  8061.73  88.7621
 40.5496  8024.09  88.8079
 40.7476  7995.96  88.6558
 40.9456  7997.27  88.4216
 41.1436  8004.85  88.1785
 41.3416  7867.65  87.7615
 41.5396  8006.85  88.3434
 41.7376  7931.12  88.1823
 41.9356  7839.72  87.5286
 42.1336  8105.32  89.1528
 42.3316  7820.29  87.7692
 42.5296  7988.55  88.2162
 42.7276  7933.28  88.1582
 42.9256  7842.02  87.5213
 43.1236  7832.79  87.5737
 43.3216  7921.89  87.815
 43.5196  7781.36  87.0994
 43.7176  7771.52  87.4346
 43.9156  7496.44  85.799
 44.1136  7548.86  85.652
 44.3116  7573.45  85.8015
 44.5096  7643.9  86.5138
 44.7076  7548.74  85.9025
 44.9056  7652.73  86.3577
 45.1036  7717.32  86.3432
 45.3016  7625.5  86.3236
 45.4996  7620.95  86.2349
 45.6976  7519.16  85.8457
 45.8956  7673.03  86.5342
 46.0936  7762.49  87.0334
 46.2916  7623.18  86.2287
 46.4896  7567.6  85.9435
 46.6876  7571.04  86.6911
 46.8856  7461.92  85.3114
 47.0836  7441.37  85.4572
 47.2816  7395.3  85.0678
 47.4796  7467.92  85.5901
 47.6776  7467.91  86.5589
 47.8756  7489.41  85.8341
 48.0736  7396.25  85.7644
 48.2716  7316.67  85.1151
 48.4696  7564.52  86.1183
 48.6676  7495.63  86.3285
 48.8656  7416.83  85.5984
 49.0636  7508.58  86.0796
 49.2616  7308.56  84.9554
 49.4596  7371.86  84.8676
 49.6576  7390.89  85.2185
 49.8556  7230.37  84.3083
 50.0536  7333.41  85.3573
 50.2516  7326.01  85.454
 50.4496  7198.1  84.3569
 50.6476  7326.83  84.7805
 50.8456  7364.79  85.0867
 51.0436  6934.89  83.0149
 51.2416  7093.77  83.63
 51.4396  6984.33  83.3912
 51.6376  7015.61  83.3941
 51.8356  7098.68  83.5103
 52.0336  7013.59  83.5124
 52.2316  6942.23  83.4533
 52.4296  7017.41  83.6024
 52.6276  6874  82.848
 52.8256  7062.05  83.5296
 53.0236  7133.06  84.6006
 53.2216  7120.52  84.5673
 53.4196  6948.48  83.4295
 53.6176  6957.52  84.009
 53.8156  6908.29  83.3774
 54.0136  6725.2  82.4384
 54.2116  6841.21  82.7737
 54.4096  6555.66  81.1025
 54.6076  6625.86  81.8819
 54.8056  6641.52  81.7537
 55.0036  6603.96  81.9342
 55.2016  6613.09  81.537
 55.3996  6391.63  80.1053
 55.5976  6545.16  81.2581
 55.7956  6563.06  81.1881
 55.9936  6637.48  81.7709
 56.1916  6481.12  80.8379
 56.3896  6390.4  80.2476
 56.5876  6440.66  81.1223
 56.7856  6343.19  79.9934
 56.9836  6400.74  80.1218
 57.1816  6433.46  80.6177
 57.3796  6318.47  79.8001
 57.5776  6404.03  80.2405
 57.7756  6276.85  80.0898
 57.9736  6175.56  79.125
 58.1716  6160.25  79.281
 58.3696  5996.17  77.9794
 58.5676  5985.24  77.3758
 58.7656  6098.8  78.7955
 58.9636  6013.26  78.2692
 59.1616  6098.4  78.9572
 59.3596  6019.21  77.7022
 59.5576  5988.06  77.5574
 59.7556  5892.75  77.3508
 59.9536  5951.44  77.6347
 60.1516  5990.52  78.7345
 60.1996  5883.95  81.1361