File: docs/examples/opeando_xrd/IS17_D/Data/IS17_D/17_Da_f00068.xye
# /beamlines/bl04/projects/cycle2025-II/20250340211-lsimonelli/DATA/IS17_D/17_Da_f00068.xye : mythproc.py merge -s 0.006 -l 0.5 -f /beamlines/bl04/inhouse/ff/FlatField/ff_20Nov2024rod8mm60s_17keV.raw -b True -c true -o xye /beamlines/bl04/projects/cycle2025-II/20250340211-lsimonelli/DATA/IS17_D/17_Da_00068.dat
# IsMon = [6763098, 6764389, 6763110]  IsPos = [-1.4999, -2.4884, -3.4988]
# Wave = 0.4962  CalPath /beamlines/bl04/projects/cycle2025-II/20250340211-lsimonelli/DATA/Align/Si_Pos1_25keV_f00001.cal
# Date = 2025-09-24_12:29:53 Dt = 4.8000  Bin = 0.0060  <imon> = 6763532 +/- 606 (Min/Max) 6763098 / 6764389
# icurr 250.1556  mocoIn 1.7062E-05  mocoOut 0.8010  i15 7.08197e+06  imon 6.76353e+06  i7 4.0000  iEMpd_timer 4.8000  iEMpd_1 3.2330E-08  iEMpd_2 7.9426E-08  iEMpd_3 1.6249E-08  iEMpd_4 4.6615E-08  iEMhp_timer 4.8000  iEMhp_1 4.8871E-06  iEMhp_2 -2.5460E-08  iEMhp_3 -2.5141E-08  iEMhp_4 -2.1457E-08
#      9776
 1.7416  69129.8  263.009
 1.9396  45111.4  212.728
 2.1376  31621.4  178.107
 2.3356  28393.9  168.418
 2.5336  27455.4  166.194
 2.7316  24987.5  158.643
 2.9296  23693.9  154.652
 3.1276  23277.3  152.839
 3.3256  22854.2  151.12
 3.5236  24839.1  157.349
 3.7216  22671.2  151.554
 3.9196  22584.1  150.5
 4.1176  22013.4  148.36
 4.3156  23464.3  153.336
 4.5136  26225.3  161.086
 4.7116  27049.3  164.727
 4.9096  26119.4  161.32
 5.1076  25753.1  160.75
 5.3056  26180.6  161.819
 5.5036  26108.9  161.486
 5.7016  26352.2  162.206
 5.8996  27002  163.411
 6.0976  27846.9  167.375
 6.2956  28235.5  167.886
 6.4936  28964.2  169.237
 6.6916  29236.2  171.021
 6.8896  30182.5  173.62
 7.0876  31130.4  177.053
 7.2856  31081.4  175.972
 7.4836  31734.5  177.156
 7.6816  32183.3  178.934
 7.8796  34267.4  184.627
 8.0776  37089.1  193.082
 8.2756  38001.4  194.034
 8.4736  37890.8  193.554
 8.6716  37482.8  193.146
 8.8696  37987.5  194.928
 9.0676  37208.4  192.276
 9.2656  35223.9  187.767
 9.4636  35228  186.182
 9.6616  34369.1  184.675
 9.8596  32949.1  180.274
 10.0576  31249  176.225
 10.2556  30104.9  173.405
 10.4536  31485.9  176.927
 10.6516  32352.5  179.561
 10.8496  27820.8  165.917
 11.0476  27513.4  165.029
 11.2456  28634.9  168.912
 11.4436  27234.6  163.888
 11.6416  25985.9  160.442
 11.8396  24938.4  157.379
 12.0376  24633.3  156.053
 12.2356  25203.6  158.26
 12.4336  24596.6  155.88
 12.6316  23726.1  153.358
 12.8296  24366.2  155.059
 13.0276  24796.9  156.601
 13.2256  24521.4  156.1
 13.4236  24397.5  155.471
 13.6216  24344.8  155.318
 13.8196  24690.1  156.184
 14.0176  24022.1  154.34
 14.2156  23584.1  151.968
 14.4136  22154.6  148.655
 14.6116  21935.7  147.133
 14.8096  21326.9  145.063
 15.0076  20181.7  144.918
 15.2056  19812.3  139.418
 15.4036  18891.7  136.968
 15.6016  18623.8  135.075
 15.7996  18146.2  133.611
 15.9976  17378.2  133.699
 16.1956  16730  129.063
 16.3936  16621.8  127.822
 16.5916  16538.7  128.14
 16.7896  16535.1  128.185
 16.9876  16078.4  127.852
 17.1856  16140.8  126.458
 17.3836  15261.7  122.864
 17.5816  14930  122.01
 17.7796  15017.6  122.294
 17.9776  15043  123.202
 18.1756  15783.2  124.856
 18.3736  15571  124.542
 18.5716  14638.4  120.504
 18.7696  14529.3  119.626
 18.9676  14319.7  118.565
 19.1656  14216.8  118.696
 19.3636  14129.3  118.538
 19.5616  14040  118.332
 19.7596  14169.6  118.282
 19.9576  14736.7  120.681
 20.1556  13850.5  117.513
 20.3536  13626  115.933
 20.5516  13438.3  115.58
 20.7496  13175.3  114.384
 20.9476  13294.8  114.652
 21.1456  13534.7  116.011
 21.3436  12927  113.334
 21.5416  13054.3  113.887
 21.7396  12821.1  112.714
 21.9376  12779.7  112.294
 22.1356  12977.3  113.286
 22.3336  12691.4  112.326
 22.5316  12791.8  112.846
 22.7296  12758.3  112.058
 22.9276  12604  112.069
 23.1256  12885.6  112.79
 23.3236  12495.8  111.613
 23.5216  12588.5  111.692
 23.7196  12517.4  111.322
 23.9176  12320.9  110.202
 24.1156  12139  109.855
 24.3136  11989.5  109.966
 24.5116  11892.5  109.044
 24.7096  11798  108.428
 24.9076  11343.9  106.339
 25.1056  11248.4  106.362
 25.3036  11135.9  105.337
 25.5016  11118.7  105.292
 25.6996  11157  105.055
 25.8976  11033.4  104.906
 26.0956  11158.3  105.521
 26.2936  11036  104.58
 26.4916  11172.1  105.111
 26.6896  10762.5  103.459
 26.8876  10567.9  102.371
 27.0856  10756.3  103.336
 27.2836  10348.8  101.245
 27.4816  10465.7  101.755
 27.6796  10215.9  100.908
 27.8776  10295.9  101.16
 28.0756  10289.8  101.415
 28.2736  10219  100.649
 28.4716  9934.18  99.2826
 28.6696  9999.98  99.4558
 28.8676  9998.53  99.799
 29.0656  9786.82  98.7179
 29.2636  9709.4  98.1181
 29.4616  9625.83  97.8793
 29.6596  9808.85  98.3681
 29.8576  9514.08  97.5618
 30.0556  9612.27  97.9425
 30.2536  9648.13  97.9173
 30.4516  9645.55  97.56
 30.6496  9634.98  97.2314
 30.8476  9420.31  96.584
 31.0456  9355.78  96.21
 31.2436  9385  95.6295
 31.4416  9117.63  94.4291
 31.6396  9622.82  97.0577
 31.8376  9240.95  94.6622
 32.0356  9131.07  94.6542
 32.2336  9131.47  94.047
 32.4316  9148.59  94.5453
 32.6296  8979.58  93.5067
 32.8276  9041.22  93.5979
 33.0256  8838.56  92.6207
 33.2236  8929.61  93.2445
 33.4216  9059.41  93.6137
 33.6196  8918.03  93.1653
 33.8176  9009.89  93.8057
 34.0156  8793.13  92.2877
 34.2136  8663.42  91.6439
 34.4116  8623.79  91.5896
 34.6096  8633.44  91.5169
 34.8076  8552.75  91.4961
 35.0056  8592.2  91.4009
 35.2036  8542.2  91.334
 35.4016  8518.32  91.1378
 35.5996  8459.93  90.8571
 35.7976  8383.64  90.7218
 35.9956  8461.56  90.7881
 36.1936  8437.58  90.5306
 36.3916  8321.94  90.0825
 36.5896  8368.19  91.2998
 36.7876  8252.88  90.0848
 36.9856  8250.86  90.1015
 37.1836  8346.04  89.7133
 37.3816  8203.33  89.3046
 37.5796  8114.77  90.5413
 37.7776  8092.71  88.8004
 37.9756  8091.58  88.6692
 38.1736  8155.96  89.2217
 38.3716  8106.77  89.2305
 38.5696  8153.64  89.8687
 38.7676  7808.79  87.4525
 38.9656  7879.9  87.4869
 39.1636  7961.89  88.2037
 39.3616  7985.6  88.2696
 39.5596  7853.1  88.3683
 39.7576  7854.51  87.762
 39.9556  7982.59  88.1159
 40.1536  8100.28  88.9642
 40.3516  8236.04  89.7187
 40.5496  8077.16  89.114
 40.7476  8072.35  89.0898
 40.9456  8083.83  88.8987
 41.1436  8072.34  88.5598
 41.3416  7920.42  88.055
 41.5396  7923.69  87.8789
 41.7376  7977.01  88.4439
 41.9356  7996.94  88.4112
 42.1336  7999.37  88.5725
 42.3316  7824.91  87.8005
 42.5296  7916.63  87.8265
 42.7276  7873.06  87.8274
 42.9256  7859.07  87.6163
 43.1236  7739.68  87.0589
 43.3216  7768.09  86.9685
 43.5196  7642.3  86.3237
 43.7176  7654.79  86.7842
 43.9156  7630.07  86.5588
 44.1136  7701.81  86.5133
 44.3116  7648.88  86.2317
 44.5096  7497.8  85.6827
 44.7076  7571  86.0276
 44.9056  7555.72  85.8132
 45.1036  7529.24  85.289
 45.3016  7290.29  84.418
 45.4996  7358.61  84.7518
 45.6976  7316.58  84.685
 45.8956  7318.33  84.5077
 46.0936  7355.61  84.7262
 46.2916  7436.95  85.1727
 46.4896  7460.2  85.3386
 46.6876  7217.49  84.6465
 46.8856  7257.54  84.1468
 47.0836  7236.65  84.2721
 47.2816  7109.2  83.402
 47.4796  7170.69  83.8693
 47.6776  6949.66  83.4963
 47.8756  7190.97  84.1043
 48.0736  7110.36  84.0913
 48.2716  6941.12  82.9002
 48.4696  7117.71  83.5454
 48.6676  7077.97  83.8885
 48.8656  7004.7  83.193
 49.0636  6966.61  82.9127
 49.2616  6821.61  82.0821
 49.4596  6876.24  81.9776
 49.6576  6819.38  81.8596
 49.8556  6868.36  82.1693
 50.0536  6801.38  82.2128
 50.2516  6845.75  82.6037
 50.4496  6780.23  81.8716
 50.6476  6713.44  81.1555
 50.8456  6809.7  81.8232
 51.0436  6589.3  80.9233
 51.2416  6598.89  80.661
 51.4396  6515.71  80.5348
 51.6376  6618.57  80.9957
 51.8356  6573.46  80.3586
 52.0336  6472.66  80.2432
 52.2316  6497.9  80.7438
 52.4296  6491.1  80.4082
 52.6276  6494.98  80.5391
 52.8256  6546.77  80.4079
 53.0236  6355.29  79.8625
 53.2216  6385.46  80.0799
 53.4196  6232.67  79.0448
 53.6176  6356.11  80.3012
 53.8156  6284.27  79.5177
 54.0136  6376.46  80.2783
 54.2116  6355.18  79.8028
 54.4096  6278.88  79.3738
 54.6076  6219.66  79.3488
 54.8056  6270.29  79.4593
 55.0036  6185.76  79.3095
 55.2016  6196.36  78.9276
 55.3996  6214.58  79.0122
 55.5976  6201.42  79.1088
 55.7956  6215.59  79.0234
 55.9936  6158.37  78.7934
 56.1916  6186.95  78.9822
 56.3896  6199.19  79.0604
 56.5876  6223.65  79.7689
 56.7856  6176.66  78.9478
 56.9836  6086.04  78.1472
 57.1816  6207.11  79.3068
 57.3796  6196.37  79.0387
 57.5776  6184.76  78.8902
 57.7756  6148.15  79.2988
 57.9736  6133.38  78.8735
 58.1716  6180.46  79.4209
 58.3696  6090.62  78.5906
 58.5676  6136.91  78.3614
 58.7656  6039.49  78.4116
 58.9636  6291.92  80.0661
 59.1616  6176.51  79.4391
 59.3596  6296.62  79.4782
 59.5576  6252.66  79.2577
 59.7556  6142.71  78.9796
 59.9536  6183.29  79.1377
 60.1516  6289.92  80.6834
 60.1996  0.0000000E+00  0.0000000E+00