File: docs/examples/opeando_xrd/IS17_D/Data/IS17_D/17_Db_f00024.xye
# /beamlines/bl04/projects/cycle2025-II/20250340211-lsimonelli/DATA/IS17_D/17_Db_f00024.xye : mythproc.py merge -s 0.006 -l 0.5 -f /beamlines/bl04/inhouse/ff/FlatField/ff_20Nov2024rod8mm60s_17keV.raw -b True -c true -o xye /beamlines/bl04/projects/cycle2025-II/20250340211-lsimonelli/DATA/IS17_D/17_Db_00024.dat
# IsMon = [6775737, 6771630, 6770794]  IsPos = [-1.5000, -2.4885, -3.4986]
# Wave = 0.4962  CalPath /beamlines/bl04/projects/cycle2025-II/20250340211-lsimonelli/DATA/Align/Si_Pos1_25keV_f00001.cal
# Date = 2025-09-24_00:23:05 Dt = 4.8000  Bin = 0.0060  <imon> = 6772720 +/- 2160 (Min/Max) 6770794 / 6775737
# icurr 251.7914  mocoIn 1.7188E-05  mocoOut 0.8073  i15 7.09222e+06  imon 6.77272e+06  i7 3.6667  iEMpd_timer 4.8000  iEMpd_1 3.5511E-08  iEMpd_2 7.8778E-08  iEMpd_3 1.7464E-08  iEMpd_4 4.7818E-08  iEMhp_timer 4.8000  iEMhp_1 4.9219E-06  iEMhp_2 -2.4040E-08  iEMhp_3 -2.4362E-08  iEMhp_4 -2.1865E-08
#      9776
 1.7416  69617  263.867
 1.9396  47905.6  219.166
 2.1376  34678.3  186.47
 2.3356  30975.1  175.862
 2.5336  29081  171
 2.7316  26510.7  163.41
 2.9296  25291.1  159.762
 3.1276  24876.2  157.978
 3.3256  24059.1  155.049
 3.5236  25980.6  161.053
 3.7216  23603.2  154.625
 3.9196  23047.9  152.012
 4.1176  23000.3  151.637
 4.3156  23857.8  154.619
 4.5136  26612.2  162.272
 4.7116  27374.5  165.708
 4.9096  26901.3  163.7
 5.1076  26633  163.452
 5.3056  26791.5  163.558
 5.5036  26368.9  162.313
 5.7016  26801.4  163.579
 5.8996  27187.2  163.988
 6.0976  28134  168.207
 6.2956  28191.7  167.755
 6.4936  28937.3  169.139
 6.6916  29157.5  170.772
 6.8896  29994.6  173.044
 7.0876  31235  177.24
 7.2856  30550.8  174.452
 7.4836  30959  174.969
 7.6816  31704.4  177.562
 7.8796  32213.8  179.03
 8.0776  34351.7  185.844
 8.2756  35474.6  187.502
 8.4736  36096.8  188.947
 8.6716  35369.3  187.642
 8.8696  36252.6  190.438
 9.0676  35298.5  187.249
 9.2656  34262.6  185.172
 9.4636  33437.7  181.424
 9.6616  32448.7  179.429
 9.8596  31966.3  177.527
 10.0576  29981.2  172.589
 10.2556  29182.8  170.715
 10.4536  29013.3  169.819
 10.6516  28739.4  169.223
 10.8496  26712.7  162.581
 11.0476  25843.4  159.889
 11.2456  25463.2  159.285
 11.4436  25530.4  158.674
 11.6416  24972.1  157.256
 11.8396  23909.6  154.061
 12.0376  23499.8  152.395
 12.2356  23464.1  152.729
 12.4336  23252.7  151.559
 12.6316  22964.7  150.859
 12.8296  23064.4  150.828
 13.0276  23402.2  152.137
 13.2256  23570.2  153.033
 13.4236  23411.9  152.299
 13.6216  23858.9  153.721
 13.8196  26088.2  160.183
 14.0176  22739.4  150.177
 14.2156  22489.5  148.384
 14.4136  21368.5  145.998
 14.6116  21046.7  144.103
 14.8096  20348.9  141.679
 15.0076  19592.5  142.839
 15.2056  18671.1  135.354
 15.4036  17678.4  132.51
 15.6016  17452.2  130.777
 15.7996  17003.5  129.352
 15.9976  16749.3  131.214
 16.1956  16441.7  127.905
 16.3936  16055.3  125.592
 16.5916  15899.3  125.613
 16.7896  15835.6  125.418
 16.9876  15675.3  126.213
 17.1856  15411  123.562
 17.3836  14917.7  121.475
 17.5816  14604.8  120.66
 17.7796  14587.4  120.522
 17.9776  14404.1  120.544
 18.1756  14546.6  119.888
 18.3736  14429.5  119.886
 18.5716  14009.8  117.888
 18.7696  13963.8  117.27
 18.9676  13863.3  116.629
 19.1656  13388.3  115.209
 19.3636  13307.4  115.041
 19.5616  13399.2  115.6
 19.7596  13646  116.065
 19.9576  13945.1  117.383
 20.1556  13441.7  115.759
 20.3536  13135.9  113.831
 20.5516  12805.2  112.814
 20.7496  12605.4  111.786
 20.9476  12774.5  112.376
 21.1456  12655.1  112.181
 21.3436  12498.6  111.436
 21.5416  12295.3  110.535
 21.7396  12278.5  110.304
 21.9376  12127.1  109.402
 22.1356  12186.5  109.817
 22.3336  11894  108.735
 22.5316  12141  109.969
 22.7296  11955.9  108.511
 22.9276  11725.4  108.103
 23.1256  12152.2  109.544
 23.3236  12151.3  110.081
 23.5216  12368.5  110.7
 23.7196  12284.1  110.481
 23.9176  12162.9  109.474
 24.1156  11829.1  108.402
 24.3136  11518.5  107.775
 24.5116  11697.7  108.118
 24.7096  11197.6  105.622
 24.9076  11289.3  106.073
 25.1056  10900.4  104.433
 25.3036  10691.3  103.214
 25.5016  10794.5  103.745
 25.6996  10735.8  103.047
 25.8976  10789.1  103.721
 26.0956  10617.6  102.921
 26.2936  10541.2  102.216
 26.4916  10872.4  103.668
 26.6896  10461  101.981
 26.8876  10389.9  101.49
 27.0856  10196.9  100.577
 27.2836  10048.3  99.9283
 27.4816  10029.1  99.6116
 27.6796  9925.41  99.4549
 27.8776  10214.1  100.727
 28.0756  9747.07  98.7061
 28.2736  9731.82  98.217
 28.4716  9728.55  98.2505
 28.6696  9614.15  97.5125
 28.8676  9534.97  97.4544
 29.0656  9337.51  96.4225
 29.2636  9550.28  97.222
 29.4616  8973.52  94.5171
 29.6596  9174.13  95.1445
 29.8576  8925.16  94.5057
 30.0556  9011.35  94.8365
 30.2536  9192.37  95.588
 30.4516  9380.26  96.1823
 30.6496  9141.06  94.6888
 30.8476  9207.32  95.4726
 31.0456  9278.74  95.7959
 31.2436  9206  94.6963
 31.4416  9055.94  94.1039
 31.6396  9112.03  94.4392
 31.8376  9106.18  93.9293
 32.0356  9028.48  94.1113
 32.2336  9062.81  93.6837
 32.4316  8675.14  92.0659
 32.6296  8675.43  91.8403
 32.8276  8638.34  91.5022
 33.0256  8581.65  91.2528
 33.2236  8619.99  91.603
 33.4216  8547.01  90.9191
 33.6196  8408.65  90.4643
 33.8176  8555.8  91.4099
 34.0156  8380.81  90.1075
 34.2136  8476.4  90.628
 34.4116  8253.75  89.6136
 34.6096  8400.25  90.2745
 34.8076  8184.43  89.5179
 35.0056  8370.81  90.2058
 35.2036  8459.58  90.8963
 35.4016  8174.09  89.2687
 35.5996  8150.45  89.1746
 35.7976  8107.81  89.2157
 35.9956  8229.85  89.5306
 36.1936  8139.42  88.8826
 36.3916  8120.74  88.9868
 36.5896  8112.77  90.3766
 36.7876  7736.37  87.2287
 36.9856  7660.22  86.8178
 37.1836  7820.81  86.8553
 37.3816  7768.45  86.9215
 37.5796  7798.05  88.76
 37.7776  7903.99  87.7468
 37.9756  7878.64  87.4894
 38.1736  7869.79  87.638
 38.3716  7776.89  87.3791
 38.5696  7743.23  87.5632
 38.7676  7647.52  86.5393
 38.9656  7716.62  86.5645
 39.1636  7755.56  87.0188
 39.3616  7658.76  86.4423
 39.5596  7627.6  87.0933
 39.7576  7496.26  85.7444
 39.9556  7744.24  86.7953
 40.1536  7804.39  87.3139
 40.3516  7660.2  86.6005
 40.5496  7752.58  87.0882
 40.7476  7769.41  87.3965
 40.9456  7773.26  87.1707
 41.1436  7815.14  87.1317
 41.3416  7606.55  86.2966
 41.5396  7654.91  86.38
 41.7376  7610.23  86.3783
 41.9356  7557.6  85.9389
 42.1336  7724.53  87.0178
 42.3316  7511.79  86.0271
 42.5296  7695.1  86.5878
 42.7276  7629.27  86.4539
 42.9256  7537.55  85.81
 43.1236  7476.26  85.5514
 43.3216  7614.27  86.1961
 43.5196  7494.74  85.4762
 43.7176  7558.95  86.2375
 43.9156  7234.63  84.2959
 44.1136  7410.69  84.8746
 44.3116  7369.85  84.6556
 44.5096  7175.72  83.8295
 44.7076  7379.59  84.9423
 44.9056  7411.79  84.9857
 45.1036  7422.14  84.668
 45.3016  7279.08  84.3394
 45.4996  7465.17  85.3547
 45.6976  7331.99  84.7685
 45.8956  7312.06  84.4652
 46.0936  7434.1  84.9226
 46.2916  7421.66  85.0661
 46.4896  7486.83  85.4778
 46.6876  7365.19  85.4993
 46.8856  7242.52  84.1708
 47.0836  7216.76  84.1482
 47.2816  7115.59  83.4459
 47.4796  7245.04  84.3031
 47.6776  7131.83  84.5832
 47.8756  7118  83.6825
 48.0736  7175.26  84.4437
 48.2716  7056.34  83.5874
 48.4696  7232.72  84.2096
 48.6676  7111.74  84.0903
 48.8656  7217.46  84.442
 49.0636  7189.86  84.2181
 49.2616  7044.42  83.4102
 49.4596  7111.89  83.3716
 49.6576  6974.76  82.7841
 49.8556  7121  83.6683
 50.0536  7071.37  83.8206
 50.2516  7057.87  83.8556
 50.4496  7080.67  83.6672
 50.6476  7146.83  83.7358
 50.8456  7048.31  83.2263
 51.0436  6902.12  82.8312
 51.2416  6837.21  82.117
 51.4396  6784.05  82.1964
 51.6376  6718.46  81.6179
 51.8356  6819.28  81.8511
 52.0336  6748.76  81.9181
 52.2316  6772.34  82.4232
 52.4296  6701.56  81.7015
 52.6276  6784.16  82.3139
 52.8256  6826.82  82.1255
 53.0236  6825.57  82.7542
 53.2216  6666.93  81.8032
 53.4196  6780.63  82.4275
 53.6176  6661.62  82.1957
 53.8156  6597.77  81.4786
 54.0136  6478.41  80.9138
 54.2116  6583.3  81.1878
 54.4096  6489.62  80.6871
 54.6076  6465.92  80.8773
 54.8056  6328.52  79.8103
 55.0036  6377.43  80.3634
 55.2016  6418.63  80.2042
 55.3996  6179.9  78.7766
 55.5976  6262.17  79.4863
 55.7956  6266.32  79.3198
 55.9936  6253.09  79.3527
 56.1916  6205.85  79.0982
 56.3896  6129.21  78.6
 56.5876  6070  78.7535
 56.7856  6064.01  78.2197
 56.9836  6161.18  78.6121
 57.1816  6223.64  79.3754
 57.3796  5998.43  77.7212
 57.5776  6108.68  78.3477
 57.7756  5976.33  78.1617
 57.9736  5965.58  77.7521
 58.1716  5972.59  78.0664
 58.3696  5801.12  76.7077
 58.5676  5869.09  76.6393
 58.7656  5822.18  76.9982
 58.9636  5712.22  76.295
 59.1616  5767.33  76.787
 59.3596  5793.44  76.2449
 59.5576  5849.79  76.6704
 59.7556  5808.16  76.8073
 59.9536  5786.64  76.5659
 60.1516  5724.91  76.9829
 60.1996  0.0000000E+00  0.0000000E+00