File: docs/examples/opeando_xrd/IS17_D/Data/IS17_D/17_Da_f00154.xye
# /beamlines/bl04/projects/cycle2025-II/20250340211-lsimonelli/DATA/IS17_D/17_Da_f00154.xye : mythproc.py merge -s 0.006 -l 0.5 -f /beamlines/bl04/inhouse/ff/FlatField/ff_20Nov2024rod8mm60s_17keV.raw -b True -c true -o xye /beamlines/bl04/projects/cycle2025-II/20250340211-lsimonelli/DATA/IS17_D/17_Da_00154.dat
# IsMon = [6746496, 6750373, 6747709]  IsPos = [-1.5000, -2.4883, -3.4989]
# Wave = 0.4962  CalPath /beamlines/bl04/projects/cycle2025-II/20250340211-lsimonelli/DATA/Align/Si_Pos1_25keV_f00001.cal
# Date = 2025-09-25_12:30:20 Dt = 4.8000  Bin = 0.0060  <imon> = 6748193 +/- 1619 (Min/Max) 6746496 / 6750373
# icurr 250.1029  mocoIn 1.7059E-05  mocoOut 0.7996  i15 7.07213e+06  imon 6.74819e+06  i7 4.6667  iEMpd_timer 4.8000  iEMpd_1 3.4535E-08  iEMpd_2 7.8455E-08  iEMpd_3 1.6046E-08  iEMpd_4 4.8657E-08  iEMhp_timer 4.8000  iEMhp_1 4.8849E-06  iEMhp_2 -2.5281E-08  iEMhp_3 -2.3972E-08  iEMhp_4 -2.0706E-08
#      9776
 1.7416  70099.4  264.872
 1.9396  46203.2  215.314
 2.1376  32623.2  180.923
 2.3356  29556.8  171.848
 2.5336  27250.8  165.589
 2.7316  25808.9  161.231
 2.9296  24622.5  157.654
 3.1276  24209  155.88
 3.3256  24037.8  155.004
 3.5236  25773  160.28
 3.7216  23518.7  154.36
 3.9196  23110.3  152.247
 4.1176  22762.4  150.865
 4.3156  24247  155.871
 4.5136  26482.7  161.87
 4.7116  27673.4  166.615
 4.9096  26829.9  163.498
 5.1076  26618.2  163.432
 5.3056  27087.9  164.594
 5.5036  26949.9  164.06
 5.7016  27436.3  165.508
 5.8996  28135.9  166.813
 6.0976  28558.1  169.508
 6.2956  29213.8  170.768
 6.4936  29889.1  171.914
 6.6916  29929.3  173.035
 6.8896  30884.2  175.626
 7.0876  31986.6  179.39
 7.2856  31804.8  178.01
 7.4836  32160.2  178.416
 7.6816  32946.4  181.042
 7.8796  34619.2  185.564
 8.0776  35898.9  189.941
 8.2756  37776.6  193.448
 8.4736  38506.2  195.116
 8.6716  37877.3  194.147
 8.8696  37527.6  193.754
 9.0676  36628.2  190.78
 9.2656  35672.4  188.966
 9.4636  35463.1  186.814
 9.6616  34811.6  185.864
 9.8596  33272.9  181.156
 10.0576  31610.1  177.234
 10.2556  30487.3  174.501
 10.4536  29537.5  171.365
 10.6516  28734.7  169.21
 10.8496  28181.3  166.993
 11.0476  27469.9  164.896
 11.2456  27003.8  164.026
 11.4436  26860.1  162.75
 11.6416  26796.8  162.926
 11.8396  25020.1  157.64
 12.0376  25063.4  157.411
 12.2356  24352.5  155.555
 12.4336  24254.9  154.798
 12.6316  23900.9  153.926
 12.8296  24528.8  155.574
 13.0276  24900.9  156.926
 13.2256  24776.6  156.905
 13.4236  24768  156.647
 13.6216  24697  156.442
 13.8196  24734.2  156.322
 14.0176  24121  154.551
 14.2156  23663.6  152.224
 14.4136  22669  150.367
 14.6116  22213.8  148.06
 14.8096  21670.5  146.226
 15.0076  20527.9  146.147
 15.2056  20274.5  141.028
 15.4036  19173  137.977
 15.6016  18704.6  135.357
 15.7996  18457.6  134.753
 15.9976  17587.5  135.092
 16.1956  17231.3  130.991
 16.3936  16894.4  128.871
 16.5916  16513.5  128.046
 16.7896  16618.2  128.513
 16.9876  16504.6  129.537
 17.1856  16269.3  126.955
 17.3836  15550.7  124.021
 17.5816  15310.1  123.553
 17.7796  15213.4  123.092
 17.9776  15011.7  123.073
 18.1756  15075  122.034
 18.3736  14854.7  121.639
 18.5716  14613  120.401
 18.7696  14703  120.341
 18.9676  14339.5  118.652
 19.1656  14311.3  119.097
 19.3636  14178.5  118.745
 19.5616  14103.2  118.592
 19.7596  14133.2  118.129
 19.9576  14550.1  119.911
 20.1556  14610.2  120.691
 20.3536  13831  116.806
 20.5516  13500.2  115.847
 20.7496  13237.9  114.571
 20.9476  13171.5  114.122
 21.1456  13282.5  114.928
 21.3436  13100.2  114.09
 21.5416  13091.4  114.051
 21.7396  12905  113.082
 21.9376  13007.4  113.29
 22.1356  12853  112.894
 22.3336  12951.4  113.46
 22.5316  12910.1  113.376
 22.7296  12799.3  112.245
 22.9276  12782.4  112.852
 23.1256  12973.1  113.166
 23.3236  12636.2  112.259
 23.5216  12601.4  111.755
 23.7196  12473.1  111.351
 23.9176  12508.4  111.043
 24.1156  12368.4  110.894
 24.3136  11784.2  109.018
 24.5116  11940  109.263
 24.7096  11756.9  108.239
 24.9076  11367.1  106.455
 25.1056  11313  106.666
 25.3036  11355.2  106.369
 25.5016  11204.4  105.7
 25.6996  11184.5  105.187
 25.8976  11087.5  105.167
 26.0956  11109.7  105.291
 26.2936  11164.9  105.188
 26.4916  11206.6  105.266
 26.6896  10690.4  103.11
 26.8876  10744.6  103.227
 27.0856  10802.6  103.559
 27.2836  10434.4  101.725
 27.4816  10479.8  101.821
 27.6796  10283.2  101.24
 27.8776  10218.6  100.778
 28.0756  10349  101.704
 28.2736  10153.7  100.327
 28.4716  10070.2  99.9605
 28.6696  10050.9  99.7087
 28.8676  10004.9  99.8307
 29.0656  9804.55  98.8193
 29.2636  9848.85  98.8227
 29.4616  9767.52  98.5928
 29.6596  9860.12  98.6201
 29.8576  9626.82  98.135
 30.0556  9721.97  98.4949
 30.2536  9773.47  98.5445
 30.4516  9489.02  96.7699
 30.6496  9662.99  97.3707
 30.8476  9479.93  96.894
 31.0456  9343.08  96.15
 31.2436  9481.41  96.1222
 31.4416  9174.41  94.7204
 31.6396  9415.92  96.0075
 31.8376  9279.87  94.8597
 32.0356  9275.84  95.4062
 32.2336  9181.41  94.3038
 32.4316  9223.35  94.8907
 32.6296  9114.2  94.2012
 32.8276  9095.89  93.8761
 33.0256  9022.28  93.5814
 33.2236  8969.7  93.4563
 33.4216  9062.9  93.6281
 33.6196  8977.71  93.4746
 33.8176  8929.06  93.3826
 34.0156  8886.41  92.7819
 34.2136  8807.42  92.4078
 34.4116  8711.33  92.1697
 34.6096  8693.98  91.8405
 34.8076  8580.25  91.6372
 35.0056  8705.32  91.9999
 35.2036  8631.94  91.8183
 35.4016  8542.73  91.2682
 35.5996  8429.59  90.697
 35.7976  8339.21  90.4807
 35.9956  8476.45  90.8704
 36.1936  8454.82  90.6193
 36.3916  8396.17  90.4366
 36.5896  8365.17  91.2835
 36.7876  8376.81  90.7543
 36.9856  8125.04  89.4029
 37.1836  8342.32  89.6894
 37.3816  8345.66  90.0766
 37.5796  8199.57  91.0061
 37.7776  8093.72  88.8101
 37.9756  8035.13  88.3666
 38.1736  8082.94  88.8244
 38.3716  8140.76  89.4227
 38.5696  8042.8  89.2521
 38.7676  7768.32  87.2256
 38.9656  8035.41  88.3455
 39.1636  7915.39  87.9537
 39.3616  8089.75  88.8381
 39.5596  7981.5  89.1025
 39.7576  7886.39  87.9359
 39.9556  8055.32  88.514
 40.1536  8092.76  88.9281
 40.3516  8127.2  89.1235
 40.5496  8151.77  89.5189
 40.7476  7984.69  88.601
 40.9456  8043.79  88.6847
 41.1436  8051.09  88.4451
 41.3416  7981.28  88.3649
 41.5396  8004.7  88.2628
 41.7376  7953.69  88.3149
 41.9356  7960.56  88.2104
 42.1336  7932.51  88.2065
 42.3316  7915.34  88.3064
 42.5296  7882.74  87.6381
 42.7276  7952.38  88.2657
 42.9256  7955.02  88.149
 43.1236  7750.16  87.118
 43.3216  7756.17  86.9043
 43.5196  7700.03  86.6439
 43.7176  7737.36  87.2558
 43.9156  7664.68  86.7497
 44.1136  7588.92  85.8727
 44.3116  7572.95  85.7999
 44.5096  7550.63  85.9797
 44.7076  7700.08  86.7531
 44.9056  7575.11  85.9264
 45.1036  7520.96  85.2457
 45.3016  7428.93  85.222
 45.4996  7284.11  84.3238
 45.6976  7337.14  84.8058
 45.8956  7473.39  85.3973
 46.0936  7392.77  84.7002
 46.2916  7300.22  84.3873
 46.4896  7373.66  84.8412
 46.6876  7249.71  84.835
 46.8856  7210.53  83.8653
 47.0836  7258.5  84.4017
 47.2816  7079.4  83.2275
 47.4796  7241.69  84.2876
 47.6776  7036.24  84.0135
 47.8756  7049.08  83.2759
 48.0736  7122.71  84.1676
 48.2716  6980.85  83.1745
 48.4696  7076.58  83.3243
 48.6676  7019.9  83.5492
 48.8656  6930.95  82.7461
 49.0636  7008.7  83.1523
 49.2616  6847.62  82.1247
 49.4596  6816.19  81.7536
 49.6576  6841.82  81.9928
 49.8556  6764.16  81.5457
 50.0536  6834.6  82.4115
 50.2516  6754.7  82.0643
 50.4496  6846.69  82.2702
 50.6476  6776.35  81.5373
 50.8456  6789.53  81.7001
 51.0436  6661.48  81.3615
 51.2416  6720.21  81.3943
 51.4396  6581.68  80.9347
 51.6376  6549.26  80.5615
 51.8356  6580.72  80.3997
 52.0336  6462.29  80.1844
 52.2316  6572.51  81.2069
 52.4296  6474.38  80.3026
 52.6276  6559.87  80.9436
 52.8256  6687.94  81.2775
 53.0236  6365.35  79.9252
 53.2216  6376.12  79.9956
 53.4196  6204.45  78.8673
 53.6176  6325.85  80.109
 53.8156  6395.69  80.218
 54.0136  6392.47  80.3794
 54.2116  6295.23  79.4325
 54.4096  6342.65  79.7729
 54.6076  6305.96  79.896
 54.8056  6258.09  79.3821
 55.0036  6177.14  79.1274
 55.2016  6331.36  79.7905
 55.3996  6260.43  79.3015
 55.5976  6267.5  79.5359
 55.7956  6233.78  79.1342
 55.9936  6240.44  79.3174
 56.1916  6243.83  79.3509
 56.3896  6207.34  79.1128
 56.5876  6193.56  79.5799
 56.7856  6155.39  78.8159
 56.9836  6054.49  77.9462
 57.1816  6183.2  79.0617
 57.3796  6231.15  79.2533
 57.5776  6228.64  79.1686
 57.7756  6126.81  79.1577
 57.9736  6031.07  78.2168
 58.1716  6133.6  79.1225
 58.3696  6074.26  78.4802
 58.5676  6236.5  78.996
 58.7656  6137.9  79.0407
 58.9636  6149.15  79.1496
 59.1616  6137.71  79.1996
 59.3596  6379.37  79.9991
 59.5576  6194.98  78.8916
 59.7556  6138.83  78.955
 59.9536  6239.63  79.4978
 60.1516  6144.06  79.7428
 60.1996  6200.31  83.2946