File: docs/examples/opeando_xrd/IS17_D/Data/IS17_D/17_Db_f00046.xye
# /beamlines/bl04/projects/cycle2025-II/20250340211-lsimonelli/DATA/IS17_D/17_Db_f00046.xye : mythproc.py merge -s 0.006 -l 0.5 -f /beamlines/bl04/inhouse/ff/FlatField/ff_20Nov2024rod8mm60s_17keV.raw -b True -c true -o xye /beamlines/bl04/projects/cycle2025-II/20250340211-lsimonelli/DATA/IS17_D/17_Db_00046.dat
# IsMon = [6754748, 6751104, 6758913]  IsPos = [-1.4999, -2.4885, -3.4986]
# Wave = 0.4962  CalPath /beamlines/bl04/projects/cycle2025-II/20250340211-lsimonelli/DATA/Align/Si_Pos1_25keV_f00001.cal
# Date = 2025-09-24_06:31:32 Dt = 4.8000  Bin = 0.0060  <imon> = 6754922 +/- 3190 (Min/Max) 6751104 / 6758913
# icurr 249.7557  mocoIn 1.7050E-05  mocoOut 0.7994  i15 7.07526e+06  imon 6.75492e+06  i7 7.6667  iEMpd_timer 4.8000  iEMpd_1 3.4406E-08  iEMpd_2 7.8012E-08  iEMpd_3 1.6738E-08  iEMpd_4 4.9814E-08  iEMhp_timer 4.8000  iEMhp_1 4.8795E-06  iEMhp_2 -2.4785E-08  iEMhp_3 -2.3267E-08  iEMhp_4 -2.0525E-08
#      9776
 1.7416  71889.6  268.203
 1.9396  49599.9  223.069
 2.1376  36881.7  192.347
 2.3356  33575.6  183.139
 2.5336  30918.8  176.362
 2.7316  28471.3  169.382
 2.9296  27289.9  165.992
 3.1276  26817.6  164.058
 3.3256  25707.3  160.299
 3.5236  27157.8  164.705
 3.7216  24857.1  158.68
 3.9196  24275.7  156.006
 4.1176  24074.8  155.142
 4.3156  25058.5  158.448
 4.5136  27350.8  164.517
 4.7116  28407.3  168.802
 4.9096  27567.5  165.719
 5.1076  27228.9  165.283
 5.3056  27487.4  165.678
 5.5036  26870.3  163.829
 5.7016  27422.1  165.462
 5.8996  27900.1  166.121
 6.0976  28854.2  170.362
 6.2956  28958.3  170.014
 6.4936  29818.1  171.711
 6.6916  29931.4  173.026
 6.8896  30886.9  175.61
 7.0876  31966.1  179.41
 7.2856  31892  178.241
 7.4836  32297.5  178.709
 7.6816  32963.4  181.065
 7.8796  33811.2  183.38
 8.0776  35442.7  188.748
 8.2756  37070.2  191.63
 8.4736  37472.3  192.489
 8.6716  36873  191.586
 8.8696  37266.4  193.063
 9.0676  36735.4  191.003
 9.2656  35948.9  189.654
 9.4636  34751.7  184.913
 9.6616  34053.2  183.778
 9.8596  33232.9  181.064
 10.0576  31239.2  176.228
 10.2556  30399  174.274
 10.4536  29094.2  170.097
 10.6516  28585  168.809
 10.8496  27172.3  163.97
 11.0476  26176.4  160.925
 11.2456  25564.4  159.605
 11.4436  25534.6  158.687
 11.6416  27012.6  163.559
 11.8396  25042.3  157.695
 12.0376  24345.1  155.11
 12.2356  24015  154.513
 12.4336  23992.6  153.962
 12.6316  23894.3  153.906
 12.8296  23829.8  153.309
 13.0276  24267.8  154.924
 13.2256  24870  157.202
 13.4236  24772  156.658
 13.6216  24761.9  156.623
 13.8196  27003.8  163.002
 14.0176  23882  153.892
 14.2156  23418.1  151.423
 14.4136  22443.2  149.628
 14.6116  22162.3  147.879
 14.8096  21243.6  144.76
 15.0076  20363.8  145.641
 15.2056  19648.2  138.835
 15.4036  18626  136.011
 15.6016  18345  134.063
 15.7996  17717.4  132.012
 15.9976  17446.9  133.899
 16.1956  16994.2  130.024
 16.3936  16687.3  128.03
 16.5916  16402  127.578
 16.7896  16370.9  127.512
 16.9876  16163.1  128.177
 17.1856  16200.5  126.712
 17.3836  15854.7  125.258
 17.5816  15241.6  123.294
 17.7796  15030.7  122.366
 17.9776  14512.1  120.986
 18.1756  14483.4  119.629
 18.3736  14241  119.104
 18.5716  14198.4  118.672
 18.7696  14156.8  118.072
 18.9676  14053.7  117.434
 19.1656  13652.6  116.324
 19.3636  13657.2  116.552
 19.5616  13609.6  116.509
 19.7596  13993.1  117.544
 19.9576  13897.6  117.182
 20.1556  14448.1  120.015
 20.3536  14392  119.148
 20.5516  13584.6  116.206
 20.7496  13312.7  114.979
 20.9476  13155.8  114.051
 21.1456  12908.9  113.296
 21.3436  12872.8  113.081
 21.5416  12905.4  113.247
 21.7396  12703.8  112.201
 21.9376  12648.9  111.734
 22.1356  12617  111.596
 22.3336  12417.5  111.092
 22.5316  12340.4  110.855
 22.7296  12356.3  110.296
 22.9276  12327.4  110.834
 23.1256  12422  110.73
 23.3236  12638.8  112.257
 23.5216  12692.1  112.119
 23.7196  12624.2  111.782
 23.9176  12509.3  111.02
 24.1156  12293.5  110.518
 24.3136  12009.2  110.068
 24.5116  12108.9  110.04
 24.7096  11673.7  107.857
 24.9076  11460.3  106.892
 25.1056  11134.3  105.567
 25.3036  11028.1  104.831
 25.5016  11093.7  105.175
 25.6996  11005.8  104.336
 25.8976  10905.2  104.291
 26.0956  10757.1  103.585
 26.2936  10807.1  103.504
 26.4916  11051.2  104.519
 26.6896  10778.1  103.527
 26.8876  10629.5  102.664
 27.0856  10441.2  101.773
 27.2836  10346.1  101.385
 27.4816  10308.9  100.993
 27.6796  10255.2  101.091
 27.8776  10453.9  101.916
 28.0756  10012.8  100.037
 28.2736  10101.1  100.057
 28.4716  9830.63  98.7678
 28.6696  9824.67  98.5845
 28.8676  9768.06  98.6445
 29.0656  9677.01  98.1587
 29.2636  9792.08  98.4531
 29.4616  9420.94  96.8312
 29.6596  9415.91  96.3777
 29.8576  9198.55  95.9319
 30.0556  9271.36  96.1868
 30.2536  9398.35  96.642
 30.4516  9621.11  97.4007
 30.6496  9417.68  96.0975
 30.8476  9462.9  96.7792
 31.0456  9533.86  97.1072
 31.2436  9571.59  96.56
 31.4416  9341.12  95.5944
 31.6396  9434.32  96.1175
 31.8376  9427.89  95.5968
 32.0356  9259.32  95.3164
 32.2336  9148.79  94.1489
 32.4316  8951.37  93.5238
 32.6296  8985.25  93.4579
 32.8276  9026.1  93.5285
 33.0256  8759.68  92.1952
 33.2236  8925.91  93.2192
 33.4216  8826.67  92.3899
 33.6196  8813.67  92.6223
 33.8176  8845.34  92.9532
 34.0156  8813.46  92.4028
 34.2136  8828.5  92.5032
 34.4116  8522.5  91.0568
 34.6096  8592.97  91.3015
 34.8076  8516.63  91.3178
 35.0056  8446.48  90.6065
 35.2036  8780.5  92.6089
 35.4016  8554.76  91.3254
 35.5996  8493.59  91.0373
 35.7976  8435.49  90.9944
 35.9956  8649.34  91.7858
 36.1936  8481.35  90.7376
 36.3916  8248.09  89.6793
 36.5896  8346.99  91.6782
 36.7876  8114.46  89.3213
 36.9856  8070.7  89.1079
 37.1836  8125.58  88.5173
 37.3816  8021.5  88.3054
 37.5796  8106.5  90.5007
 37.7776  8146.89  89.0811
 37.9756  8201.22  89.2593
 38.1736  8227.84  89.5987
 38.3716  8124.78  89.2979
 38.5696  7969.45  88.8402
 38.7676  7951.73  88.2634
 38.9656  8109.29  88.7578
 39.1636  8069.89  88.7896
 39.3616  7941.15  88.0441
 39.5596  7827.04  88.2206
 39.7576  7929.1  88.1838
 39.9556  7899.76  87.6605
 40.1536  8049.64  88.6798
 40.3516  7877.19  87.8229
 40.5496  7996.29  88.4519
 40.7476  7992.98  88.6438
 40.9456  8015.03  88.5242
 41.1436  8161.21  89.0416
 41.3416  7857.51  87.7037
 41.5396  7820.88  87.3036
 41.7376  8035.74  88.7575
 41.9356  7800.3  87.3087
 42.1336  7931.99  88.1787
 42.3316  7750.58  87.3791
 42.5296  7820.97  87.2819
 42.7276  8006.85  88.5652
 42.9256  7843.54  87.5274
 43.1236  7835.34  87.5914
 43.3216  7813.83  87.3195
 43.5196  7726.91  86.7948
 43.7176  7813.48  87.6657
 43.9156  7649.71  86.6691
 44.1136  7633.17  86.1289
 44.3116  7658.9  86.2792
 44.5096  7465.3  85.4969
 44.7076  7674.03  86.6128
 44.9056  7682.26  86.514
 45.1036  7738.67  86.4506
 45.3016  7594.04  86.1441
 45.4996  7594.27  86.0829
 45.6976  7360.17  84.9177
 45.8956  7574.63  85.9829
 46.0936  7665.42  86.5002
 46.2916  7568.45  85.9353
 46.4896  7519.78  85.6806
 46.6876  7393.11  85.6732
 46.8856  7431.02  85.255
 47.0836  7385.3  85.1321
 47.2816  7441.75  85.3398
 47.4796  7536.55  85.979
 47.6776  7358.4  85.9108
 47.8756  7346.14  85.0126
 48.0736  7490.06  86.2875
 48.2716  7338.78  85.242
 48.4696  7461.78  85.544
 48.6676  7416.81  85.8759
 48.8656  7389.98  85.4432
 49.0636  7344.13  85.127
 49.2616  7239.94  84.5628
 49.4596  7365.56  84.8253
 49.6576  7298.5  84.6688
 49.8556  7319.67  84.8264
 50.0536  7289.83  85.1087
 50.2516  7265.57  85.0777
 50.4496  7319.69  85.0691
 50.6476  7311.11  84.6882
 50.8456  7338.96  84.9354
 51.0436  7100.73  84.0048
 51.2416  7021.76  83.1984
 51.4396  6869.74  82.705
 51.6376  7132.93  84.0986
 51.8356  7016.45  83.0324
 52.0336  7075.92  83.8779
 52.2316  7027.9  83.9593
 52.4296  6985.18  83.3872
 52.6276  6908.27  83.0481
 52.8256  7056.38  83.4862
 53.0236  7016.1  83.9184
 53.2216  7050.67  84.1654
 53.4196  6927.14  83.3342
 53.6176  6991.12  84.2255
 53.8156  6936.54  83.5624
 54.0136  6697.19  82.2599
 54.2116  6930.68  83.2965
 54.4096  6664.06  81.7685
 54.6076  6658.19  82.0742
 54.8056  6533.59  81.0876
 55.0036  6586.81  81.8307
 55.2016  6703.11  82.0367
 55.3996  6432.69  80.3652
 55.5976  6458.64  80.7342
 55.7956  6438.17  80.398
 55.9936  6629.8  81.7257
 56.1916  6544.6  81.2149
 56.3896  6324.28  79.8332
 56.5876  6345.53  80.5042
 56.7856  6379.6  80.24
 56.9836  6473.8  80.5873
 57.1816  6504.46  81.1557
 57.3796  6303.38  79.6635
 57.5776  6372.49  80.0462
 57.7756  6229.56  79.8006
 57.9736  6273.69  79.7534
 58.1716  6120.85  79.0249
 58.3696  5974.53  77.846
 58.5676  6068.25  77.9346
 58.7656  6027.38  78.3316
 58.9636  5948.02  77.8481
 59.1616  5925.56  77.8312
 59.3596  6057.21  77.9254
 59.5576  6073.49  78.0884
 59.7556  5792.25  76.6685
 59.9536  6037.16  78.1715
 60.1516  5987.41  78.6936
 60.1996  0.0000000E+00  0.0000000E+00