File: docs/examples/opeando_xrd/IS17_D/Data/IS17_D/17_Db_f00091.xye
# /beamlines/bl04/projects/cycle2025-II/20250340211-lsimonelli/DATA/IS17_D/17_Db_f00091.xye : mythproc.py merge -s 0.006 -l 0.5 -f /beamlines/bl04/inhouse/ff/FlatField/ff_20Nov2024rod8mm60s_17keV.raw -b True -c true -o xye /beamlines/bl04/projects/cycle2025-II/20250340211-lsimonelli/DATA/IS17_D/17_Db_00091.dat
# IsMon = [6772570, 6772700, 6773762]  IsPos = [-1.4999, -2.4883, -3.4988]
# Wave = 0.4962  CalPath /beamlines/bl04/projects/cycle2025-II/20250340211-lsimonelli/DATA/Align/Si_Pos1_25keV_f00001.cal
# Date = 2025-09-24_19:04:26 Dt = 4.8000  Bin = 0.0060  <imon> = 6773011 +/- 534 (Min/Max) 6772570 / 6773762
# icurr 251.4949  mocoIn 1.7149E-05  mocoOut 0.8049  i15 7.09639e+06  imon 6.77301e+06  i7 7.6667  iEMpd_timer 4.8000  iEMpd_1 3.4876E-08  iEMpd_2 7.9010E-08  iEMpd_3 1.6825E-08  iEMpd_4 4.7888E-08  iEMhp_timer 4.8000  iEMhp_1 4.9124E-06  iEMhp_2 -2.4649E-08  iEMhp_3 -2.5214E-08  iEMhp_4 -2.0419E-08
#      9776
 1.7416  70323.2  265.27
 1.9396  48595.9  220.804
 2.1376  35654.3  189.123
 2.3356  31543.6  177.514
 2.5336  29443.7  172.107
 2.7316  27312.9  165.88
 2.9296  25862.1  161.575
 3.1276  25349.7  159.499
 3.3256  25055.9  158.253
 3.5236  26242.4  161.73
 3.7216  24091.6  156.22
 3.9196  23666  154.039
 4.1176  23580.5  153.539
 4.3156  24347.6  156.193
 4.5136  26940.6  163.268
 4.7116  28043.3  167.719
 4.9096  27411.9  165.254
 5.1076  27115.6  164.943
 5.3056  27231.4  165.01
 5.5036  27059.6  164.404
 5.7016  27534.6  165.801
 5.8996  27895.3  166.11
 6.0976  28895.4  170.492
 6.2956  28867.3  169.742
 6.4936  29565.3  170.978
 6.6916  29667  172.267
 6.8896  30470.5  174.403
 7.0876  31502.9  178.105
 7.2856  31413.8  176.894
 7.4836  31454.7  176.447
 7.6816  32218.3  178.995
 7.8796  32999.5  181.178
 8.0776  34627.2  186.563
 8.2756  36405.6  189.913
 8.4736  36647.8  190.359
 8.6716  36238.1  189.913
 8.8696  37072.9  192.588
 9.0676  36074.5  189.301
 9.2656  35013.6  187.177
 9.4636  34252.3  183.609
 9.6616  33360.4  181.928
 9.8596  32866.8  180.042
 10.0576  30601.4  174.377
 10.2556  30098.9  173.391
 10.4536  29066.9  169.993
 10.6516  28483.4  168.489
 10.8496  27518  165.019
 11.0476  26728.6  162.645
 11.2456  25816.3  160.384
 11.4436  26388.4  161.32
 11.6416  25653.4  159.388
 11.8396  24661.7  156.494
 12.0376  24062.7  154.22
 12.2356  23586.1  153.096
 12.4336  23759.4  153.203
 12.6316  23662.8  153.156
 12.8296  23544.2  152.389
 13.0276  23887.2  153.704
 13.2256  24190.4  155.04
 13.4236  24224.5  154.92
 13.6216  24390.1  155.435
 13.8196  26431.5  161.28
 14.0176  23488.8  152.625
 14.2156  23076.7  150.303
 14.4136  22128.5  148.573
 14.6116  21720.5  146.39
 14.8096  20992  143.899
 15.0076  20163.4  144.908
 15.2056  19233.2  137.366
 15.4036  18227.1  134.54
 15.6016  18165.6  133.405
 15.7996  17489.9  131.169
 15.9976  17080.7  132.494
 16.1956  16855.3  129.508
 16.3936  16686.6  128.056
 16.5916  16155.3  126.635
 16.7896  16166  126.726
 16.9876  16268.9  128.596
 17.1856  15969.6  125.788
 17.3836  15545.8  124.018
 17.5816  15149.8  122.909
 17.7796  14954.4  122.044
 17.9776  14693  121.746
 18.1756  14767.4  120.799
 18.3736  14680.5  120.923
 18.5716  14358.7  119.346
 18.7696  14357.1  118.907
 18.9676  14082.7  117.563
 19.1656  13866.8  117.239
 19.3636  13773.2  117.042
 19.5616  13773.4  117.208
 19.7596  14031.8  117.694
 19.9576  14127.8  118.149
 20.1556  13991.9  118.095
 20.3536  13503.6  115.416
 20.5516  13234  114.687
 20.7496  12978.8  113.516
 20.9476  13020.4  113.458
 21.1456  12912.9  113.316
 21.3436  12692.6  112.298
 21.5416  12705.8  112.366
 21.7396  12558  111.555
 21.9376  12525.5  111.177
 22.1356  12503.7  111.21
 22.3336  12248.3  110.351
 22.5316  12219.2  110.311
 22.7296  12435.1  110.648
 22.9276  12222.7  110.359
 23.1256  12286.4  110.13
 23.3236  12565.7  111.945
 23.5216  12369.8  110.699
 23.7196  12325.3  110.463
 23.9176  12427.2  110.666
 24.1156  12057.8  109.465
 24.3136  11746.7  108.843
 24.5116  11803  108.632
 24.7096  11586.4  107.448
 24.9076  11414.1  106.669
 25.1056  11042  105.38
 25.3036  10895.4  104.193
 25.5016  10997  104.713
 25.6996  10862.8  103.661
 25.8976  10896.1  104.246
 26.0956  10896.6  104.263
 26.2936  10778.3  103.358
 26.4916  10987.5  104.204
 26.6896  10731.5  103.299
 26.8876  10628.3  102.658
 27.0856  10380.7  101.514
 27.2836  10230.4  100.729
 27.4816  10061.5  99.7716
 27.6796  10064.1  100.141
 27.8776  10404.4  101.688
 28.0756  9883.07  99.3861
 28.2736  10098.6  100.048
 28.4716  9735.67  98.2832
 28.6696  9887.4  98.8919
 28.8676  9681.6  98.2102
 29.0656  9647.87  98.0187
 29.2636  9629.43  97.716
 29.4616  9308.72  96.2534
 29.6596  9207.83  95.3069
 29.8576  9180.83  95.8384
 30.0556  9246.01  96.0546
 30.2536  9283.32  96.0463
 30.4516  9465.31  96.6268
 30.6496  9371.03  95.8751
 30.8476  9441.01  96.6741
 31.0456  9472.38  96.7902
 31.2436  9439.46  95.8992
 31.4416  9373.44  95.7419
 31.6396  9149.61  94.637
 31.8376  9281.24  94.8471
 32.0356  9255.55  95.2772
 32.2336  9187.86  94.3395
 32.4316  8820.05  92.7867
 32.6296  8803.03  92.5691
 32.8276  8807.01  92.3822
 33.0256  8792.51  92.3681
 33.2236  8949.06  93.34
 33.4216  8779.77  92.1421
 33.6196  8772.05  92.3927
 33.8176  8741.88  92.4036
 34.0156  8616.59  91.3689
 34.2136  8844.58  92.579
 34.4116  8533.56  91.2266
 34.6096  8419.88  90.3815
 34.8076  8446.76  90.9417
 35.0056  8346.23  90.0722
 35.2036  8568.28  91.4882
 35.4016  8339.57  90.1735
 35.5996  8323.06  90.1129
 35.7976  8215.37  89.7981
 35.9956  8391.91  90.4152
 36.1936  8458.85  90.6137
 36.3916  8222.21  89.4996
 36.5896  8234.85  90.592
 36.7876  7988.92  88.6284
 36.9856  7907.81  88.2037
 37.1836  7986.76  87.7548
 37.3816  7936.8  87.8389
 37.5796  7922.96  89.4691
 37.7776  8122.96  88.964
 37.9756  8138.22  88.9304
 38.1736  8013.26  88.4338
 38.3716  7983.64  88.5356
 38.5696  7949.51  88.7222
 38.7676  7814.3  87.4741
 38.9656  7889.06  87.5372
 39.1636  7926.69  88.009
 39.3616  7924.07  87.9338
 39.5596  7732.02  87.6876
 39.7576  7700.69  86.9039
 39.9556  7781.89  87.0007
 40.1536  7827.36  87.4523
 40.3516  7915.32  87.9557
 40.5496  7910.12  88.1761
 40.7476  7900.75  88.1368
 40.9456  7945.9  88.1355
 41.1436  8004.49  88.1811
 41.3416  7696.51  86.7685
 41.5396  7772.05  86.9715
 41.7376  7831.71  87.6307
 41.9356  7833.14  87.4854
 42.1336  7977.73  88.4423
 42.3316  7735.76  87.2955
 42.5296  7784.64  87.0919
 42.7276  7773.86  87.2692
 42.9256  7666.17  86.534
 43.1236  7769.18  87.2091
 43.3216  7774.4  86.9949
 43.5196  7684.74  86.5465
 43.7176  7732.95  87.2225
 43.9156  7415.29  85.3321
 44.1136  7372.67  84.6455
 44.3116  7548.97  85.6632
 44.5096  7386.36  85.0417
 44.7076  7582.72  86.0931
 44.9056  7669.59  86.452
 45.1036  7486.59  85.0414
 45.3016  7565.62  85.9916
 45.4996  7521.05  85.6688
 45.6976  7396.67  85.1416
 45.8956  7468.06  85.3637
 46.0936  7492.45  85.4557
 46.2916  7468.14  85.3511
 46.4896  7561.07  85.9039
 46.6876  7364.71  85.5001
 46.8856  7425.8  85.1048
 47.0836  7397.85  85.1978
 47.2816  7231.68  84.1216
 47.4796  7395.82  85.1704
 47.6776  7165.05  84.7781
 47.8756  7265.47  84.543
 48.0736  7283.14  85.0976
 48.2716  7230.57  84.6418
 48.4696  7369.3  85.0332
 48.6676  7345.4  85.4567
 48.8656  7219.86  84.4479
 49.0636  7335.36  85.064
 49.2616  7189.97  84.1594
 49.4596  7202.84  84.0439
 49.6576  7150.21  83.8168
 49.8556  7241.45  84.3682
 50.0536  7195.9  84.5488
 50.2516  7214.71  84.7987
 50.4496  7208.86  84.421
 50.6476  7237.2  84.2592
 50.8456  7058.54  83.2954
 51.0436  6961.17  83.1652
 51.2416  6963.43  82.8596
 51.4396  6862.12  82.6582
 51.6376  6951.4  83.0163
 51.8356  6882.49  82.2135
 52.0336  6937.86  83.0634
 52.2316  7000.11  83.8068
 52.4296  6824.12  82.441
 52.6276  6750.05  82.0954
 52.8256  6983.68  83.065
 53.0236  6988.01  83.7441
 53.2216  6898.69  83.2468
 53.4196  6818.64  82.6533
 53.6176  6817.06  83.1642
 53.8156  6843.6  82.9902
 54.0136  6615.79  81.7586
 54.2116  6658.2  81.6556
 54.4096  6546.7  81.0446
 54.6076  6528.69  81.2864
 54.8056  6444.45  80.5169
 55.0036  6484.58  81.1889
 55.2016  6528.1  80.9876
 55.3996  6336.1  79.7583
 55.5976  6398.28  80.3564
 55.7956  6368.98  79.9574
 55.9936  6475.28  80.7553
 56.1916  6342.38  79.966
 56.3896  6259.28  79.4033
 56.5876  6141.38  79.2233
 56.7856  6176.94  78.9482
 56.9836  6350.44  79.8142
 57.1816  6452.28  80.8227
 57.3796  6259.02  79.4308
 57.5776  6251.76  79.261
 57.7756  6085.45  78.8729
 57.9736  6145.5  78.9246
 58.1716  6063.72  78.6533
 58.3696  5888.71  77.2796
 58.5676  5953.73  77.1769
 58.7656  5802.58  76.8573
 58.9636  5867.4  77.3133
 59.1616  5869.4  77.4599
 59.3596  5883.71  76.8199
 59.5576  5784.77  76.228
 59.7556  5739.89  76.3394
 59.9536  5835.69  76.8745
 60.1516  5820.23  77.6058
 60.1996  0.0000000E+00  0.0000000E+00