File: docs/examples/opeando_xrd/IS17_D/Data/IS17_D/17_Db_f00035.xye
# /beamlines/bl04/projects/cycle2025-II/20250340211-lsimonelli/DATA/IS17_D/17_Db_f00035.xye : mythproc.py merge -s 0.006 -l 0.5 -f /beamlines/bl04/inhouse/ff/FlatField/ff_20Nov2024rod8mm60s_17keV.raw -b True -c true -o xye /beamlines/bl04/projects/cycle2025-II/20250340211-lsimonelli/DATA/IS17_D/17_Db_00035.dat
# IsMon = [6766478, 6765371, 6765831]  IsPos = [-1.5000, -2.4885, -3.4988]
# Wave = 0.4962  CalPath /beamlines/bl04/projects/cycle2025-II/20250340211-lsimonelli/DATA/Align/Si_Pos1_25keV_f00001.cal
# Date = 2025-09-24_03:27:23 Dt = 4.8000  Bin = 0.0060  <imon> = 6765893 +/- 454 (Min/Max) 6765371 / 6766478
# icurr 250.7291  mocoIn 1.7102E-05  mocoOut 0.8027  i15 7.08635e+06  imon 6.76589e+06  i7 5.6667  iEMpd_timer 4.8000  iEMpd_1 3.5060E-08  iEMpd_2 7.7228E-08  iEMpd_3 1.6104E-08  iEMpd_4 4.8741E-08  iEMhp_timer 4.8000  iEMhp_1 4.8992E-06  iEMhp_2 -2.5812E-08  iEMhp_3 -2.3458E-08  iEMhp_4 -2.1450E-08
#      9776
 1.7416  70672.3  265.907
 1.9396  48857.7  221.379
 2.1376  35460.5  188.595
 2.3356  31715  177.982
 2.5336  29473.1  172.18
 2.7316  27040.4  165.045
 2.9296  25966  161.895
 3.1276  25430.5  159.749
 3.3256  24636.6  156.899
 3.5236  26206.5  161.76
 3.7216  23807.3  155.292
 3.9196  23441.8  153.303
 4.1176  23377.8  152.877
 4.3156  24215.3  155.769
 4.5136  26594.8  162.213
 4.7116  27623.3  166.46
 4.9096  26871.3  163.61
 5.1076  26660.5  163.547
 5.3056  26717  163.45
 5.5036  26343.7  162.298
 5.7016  26829.3  163.664
 5.8996  27241.6  164.152
 6.0976  27878.2  167.449
 6.2956  28213.4  167.813
 6.4936  29029  169.425
 6.6916  29390  171.443
 6.8896  29939.9  172.902
 7.0876  31204.7  177.169
 7.2856  30767.6  175.069
 7.4836  31102.6  175.373
 7.6816  31778.1  177.777
 7.8796  32431.5  179.616
 8.0776  33906.8  184.62
 8.2756  35445  187.405
 8.4736  36119.8  188.988
 8.6716  34956.8  186.526
 8.8696  35943.7  189.63
 9.0676  35151.5  186.858
 9.2656  34037.3  184.552
 9.4636  33059  180.384
 9.6616  32501.4  179.571
 9.8596  31797.8  177.075
 10.0576  29720.4  171.846
 10.2556  28878.1  169.835
 10.4536  27946.9  166.685
 10.6516  27334.8  165.047
 10.8496  26133  160.809
 11.0476  25406.6  158.529
 11.2456  24761.8  157.071
 11.4436  24764.8  156.275
 11.6416  25483.6  158.861
 11.8396  23875.5  153.964
 12.0376  23144.3  151.235
 12.2356  22996.3  151.202
 12.4336  22959.2  150.603
 12.6316  22877.1  150.586
 12.8296  22914.4  150.336
 13.0276  23328.5  151.895
 13.2256  23551.6  152.973
 13.4236  23420.1  152.325
 13.6216  23708  153.244
 13.8196  25876  159.562
 14.0176  22710.5  150.072
 14.2156  22400.9  148.093
 14.4136  21412.7  146.15
 14.6116  21047.1  144.102
 14.8096  20561.1  142.407
 15.0076  19468.2  142.385
 15.2056  18498.6  134.716
 15.4036  17631.2  132.329
 15.6016  17460.7  130.797
 15.7996  17060.2  129.553
 15.9976  16797.3  131.392
 16.1956  16277.4  127.272
 16.3936  16098.7  125.776
 16.5916  15892  125.592
 16.7896  15923.8  125.772
 16.9876  15576.9  125.832
 17.1856  15381.9  123.453
 17.3836  14941.9  121.583
 17.5816  14549  120.434
 17.7796  14392.5  119.723
 17.9776  14033.7  118.978
 18.1756  14075.2  117.933
 18.3736  13805  117.262
 18.5716  13605.3  116.169
 18.7696  13683  116.076
 18.9676  13589.4  115.483
 19.1656  13298.1  114.813
 19.3636  13376.7  115.341
 19.5616  13088.3  114.243
 19.7596  13481.6  115.37
 19.9576  13538.9  115.656
 20.1556  14180.7  118.891
 20.3536  13285.2  114.476
 20.5516  12875.2  113.118
 20.7496  12782.2  112.565
 20.9476  12655  111.854
 21.1456  12516.8  111.566
 21.3436  12352.3  110.78
 21.5416  12280.7  110.473
 21.7396  12143.5  109.698
 21.9376  12069.8  109.145
 22.1356  12254.3  110.242
 22.3336  11874.3  108.638
 22.5316  11874.5  108.747
 22.7296  11887.1  108.186
 22.9276  11694.3  107.953
 23.1256  11856.4  108.191
 23.3236  12236.1  110.467
 23.5216  12056  109.286
 23.7196  12079.6  109.567
 23.9176  12099.4  109.198
 24.1156  11903.8  108.759
 24.3136  11542.1  107.89
 24.5116  11581.8  107.596
 24.7096  11246.6  105.854
 24.9076  11186.4  105.601
 25.1056  10801.5  103.958
 25.3036  10567.6  102.615
 25.5016  10711.8  103.35
 25.6996  10496.2  101.893
 25.8976  10646.6  103.04
 26.0956  10438  102.041
 26.2936  10399.3  101.525
 26.4916  10824.2  103.435
 26.6896  10423.9  101.805
 26.8876  10352.9  101.31
 27.0856  10088.4  100.032
 27.2836  10024.6  99.6393
 27.4816  9919.64  99.0571
 27.6796  9888.54  99.2595
 27.8776  10036.2  99.8602
 28.0756  9670.55  98.3093
 28.2736  9716.71  98.1397
 28.4716  9469.58  96.9336
 28.6696  9526.05  97.0701
 28.8676  9308.06  96.2953
 29.0656  9239.05  95.9092
 29.2636  9419.22  96.5468
 29.4616  8983.82  94.5604
 29.6596  9035.19  94.4126
 29.8576  8860.63  94.1555
 30.0556  8967.24  94.5988
 30.2536  9116.4  95.1784
 30.4516  9150.84  95.0034
 30.6496  9101.3  94.4832
 30.8476  9137.51  95.112
 31.0456  9093  94.8409
 31.2436  9091.88  94.1096
 31.4416  8933.45  93.471
 31.6396  8942.22  93.5599
 31.8376  8988.77  93.3217
 32.0356  8851.36  93.1644
 32.2336  8906.4  92.8811
 32.4316  8529.26  91.2922
 32.6296  8540.39  91.1197
 32.8276  8693.98  91.7935
 33.0256  8396.45  90.2722
 33.2236  8483.04  90.8679
 33.4216  8513.32  90.7332
 33.6196  8520.36  91.0555
 33.8176  8553.71  91.3936
 34.0156  8421.63  90.3283
 34.2136  8468.3  90.5965
 34.4116  8181.72  89.2133
 34.6096  8324.24  89.8686
 34.8076  8208.79  89.651
 35.0056  8156.07  89.0336
 35.2036  8397.42  90.5661
 35.4016  8083.48  88.7745
 35.5996  8087.99  88.832
 35.7976  8065.61  88.9761
 35.9956  8284.64  89.8296
 36.1936  8159.14  88.9992
 36.3916  7919.21  87.877
 36.5896  8021.76  89.8725
 36.7876  7773.65  87.4324
 36.9856  7630  86.6467
 37.1836  7688.31  86.1083
 37.3816  7772.36  86.9343
 37.5796  7756.39  88.5279
 37.7776  7879.2  87.6083
 37.9756  7861.96  87.4057
 38.1736  7890.26  87.7467
 38.3716  7818.65  87.6094
 38.5696  7604.12  86.7741
 38.7676  7621.59  86.3953
 38.9656  7627.65  86.0691
 39.1636  7696.76  86.6962
 39.3616  7615.78  86.2042
 39.5596  7616.19  87.027
 39.7576  7504.15  85.7864
 39.9556  7609.75  86.0377
 40.1536  7751.89  87.0264
 40.3516  7706.13  86.7889
 40.5496  7671.33  86.6313
 40.7476  7738.59  87.2267
 40.9456  7673.75  86.6183
 41.1436  7925.02  87.7407
 41.3416  7582.09  86.1554
 41.5396  7589.49  86.004
 41.7376  7515.1  85.8466
 41.9356  7558.85  85.9466
 42.1336  7746.83  87.1467
 42.3316  7525.89  86.0985
 42.5296  7609.62  86.1022
 42.7276  7557.12  86.0434
 42.9256  7499.29  85.5741
 43.1236  7476.87  85.5632
 43.3216  7543.05  85.791
 43.5196  7478.14  85.367
 43.7176  7376.29  85.1791
 43.9156  7374.33  85.0981
 44.1136  7285.66  84.1467
 44.3116  7360.33  84.5927
 44.5096  7255.16  84.2862
 44.7076  7344  84.7296
 44.9056  7478.46  85.3691
 45.1036  7359.75  84.3158
 45.3016  7339.86  84.6915
 45.4996  7387.65  84.9126
 45.6976  7228.63  84.1704
 45.8956  7387.22  84.903
 46.0936  7335.17  84.3652
 46.2916  7259.51  84.1457
 46.4896  7334.11  84.5809
 46.6876  7158.26  84.2933
 46.8856  7135.6  83.4224
 47.0836  7233.7  84.2415
 47.2816  7084.51  83.2614
 47.4796  7214.91  84.1296
 47.6776  7158.6  84.729
 47.8756  7095.76  83.5507
 48.0736  7168.39  84.4324
 48.2716  7000.76  83.2499
 48.4696  7269.34  84.4219
 48.6676  7134.45  84.2326
 48.8656  7151.55  84.0544
 49.0636  7174.81  84.1319
 49.2616  7055.06  83.4745
 49.4596  7167.48  83.6891
 49.6576  7090.69  83.471
 49.8556  7055.52  83.282
 50.0536  7036.61  83.6194
 50.2516  7065.54  83.9019
 50.4496  7015.46  83.2804
 50.6476  7084.67  83.3695
 50.8456  7065.9  83.3408
 51.0436  6865.14  82.6018
 51.2416  6865.18  82.2742
 51.4396  6733.57  81.8834
 51.6376  6723.78  81.644
 51.8356  6807.63  81.7764
 52.0336  6839.47  82.4657
 52.2316  6726.09  82.1385
 52.4296  6728.22  81.8611
 52.6276  6664.87  81.5874
 52.8256  6885.32  82.4785
 53.0236  6820.46  82.7313
 53.2216  6688.5  81.9439
 53.4196  6688.45  81.8588
 53.6176  6793.71  83.0131
 53.8156  6726.64  82.2744
 54.0136  6463.96  80.8204
 54.2116  6562.16  81.0543
 54.4096  6511.74  80.8273
 54.6076  6442.67  80.7401
 54.8056  6312.61  79.7083
 55.0036  6480.36  81.0238
 55.2016  6332.8  79.6707
 55.3996  6201.13  78.901
 55.5976  6220.83  79.2316
 55.7956  6161.09  78.6438
 55.9936  6315.37  79.7528
 56.1916  6124.74  78.5728
 56.3896  6070.82  78.2049
 56.5876  6125.77  79.1118
 56.7856  5991.7  77.7496
 56.9836  6191.73  78.803
 57.1816  6195.11  79.1948
 57.3796  6067.15  78.1874
 57.5776  6076.3  78.1215
 57.7756  5987.55  78.2282
 57.9736  5917.12  77.4321
 58.1716  5924.5  77.7548
 58.3696  5665.06  75.8033
 58.5676  5773.48  76.0053
 58.7656  5708.77  76.2377
 58.9636  5783.52  76.76
 59.1616  5718.31  76.4553
 59.3596  5722.6  75.7668
 59.5576  5817.32  76.4468
 59.7556  5602.7  75.4262
 59.9536  5879.84  77.1694
 60.1516  5701.11  76.8122
 60.1996  0.0000000E+00  0.0000000E+00