File: docs/examples/opeando_xrd/IS17_D/Data/IS17_D/17_Da_f00016.xye
# /beamlines/bl04/projects/cycle2025-II/20250340211-lsimonelli/DATA/IS17_D/17_Da_f00016.xye : mythproc.py merge -s 0.006 -l 0.5 -f /beamlines/bl04/inhouse/ff/FlatField/ff_20Nov2024rod8mm60s_17keV.raw -b True -c true -o xye /beamlines/bl04/projects/cycle2025-II/20250340211-lsimonelli/DATA/IS17_D/17_Da_00016.dat
# IsMon = [6784011, 6778477, 6786113]  IsPos = [-1.5000, -2.4885, -3.4986]
# Wave = 0.4962  CalPath /beamlines/bl04/projects/cycle2025-II/20250340211-lsimonelli/DATA/Align/Si_Pos1_25keV_f00001.cal
# Date = 2025-09-23_21:59:30 Dt = 4.8000  Bin = 0.0060  <imon> = 6782867 +/- 3221 (Min/Max) 6778477 / 6786113
# icurr 252.6597  mocoIn 1.7241E-05  mocoOut 0.8083  i15 7.09617e+06  imon 6.78287e+06  i7 3.6667  iEMpd_timer 4.8000  iEMpd_1 3.5138E-08  iEMpd_2 7.8009E-08  iEMpd_3 1.8163E-08  iEMpd_4 4.6469E-08  iEMhp_timer 4.8000  iEMhp_1 4.9368E-06  iEMhp_2 -2.4079E-08  iEMhp_3 -2.4374E-08  iEMhp_4 -2.1395E-08
#      9776
 1.7416  68190.4  261.186
 1.9396  43910.6  209.862
 2.1376  30475  174.828
 2.3356  26995  164.198
 2.5336  29432.9  172.055
 2.7316  24298.2  156.466
 2.9296  22849.5  151.893
 3.1276  22207  149.299
 3.3256  21807.5  147.652
 3.5236  24049  155
 3.7216  21709.3  148.304
 3.9196  21932.9  148.308
 4.1176  21375.5  146.187
 4.3156  22556.7  150.327
 4.5136  26030.6  160.502
 4.7116  26354.4  162.598
 4.9096  25543.1  159.528
 5.1076  25036  158.489
 5.3056  25459.2  159.463
 5.5036  24948  157.863
 5.7016  25085.1  158.258
 5.8996  25764.5  159.637
 6.0976  26621.6  163.653
 6.2956  27038.4  164.29
 6.4936  27882.4  166.048
 6.6916  28222.5  168.029
 6.8896  29379  171.299
 7.0876  30208.1  174.323
 7.2856  29928.1  172.68
 7.4836  30865.8  174.711
 7.6816  31130.5  175.984
 7.8796  32837.6  180.744
 8.0776  37756.1  194.822
 8.2756  37344  192.329
 8.4736  36934.5  191.108
 8.6716  36039.9  189.425
 8.8696  37335  193.209
 9.0676  36470.2  190.324
 9.2656  33922.5  184.229
 9.4636  33334.5  181.061
 9.6616  32644.6  179.943
 9.8596  31420.7  176.068
 10.0576  29885.3  172.369
 10.2556  28425.1  168.519
 10.4536  33938  183.71
 10.6516  36076.7  189.641
 10.8496  26446  161.757
 11.0476  26660.5  162.413
 11.2456  30082.9  173.141
 11.4436  25695.5  159.183
 11.6416  25014  157.417
 11.8396  23813  153.783
 12.0376  23325.5  151.836
 12.2356  25404.6  158.917
 12.4336  24466.9  155.472
 12.6316  22557.3  149.533
 12.8296  23399.4  151.95
 13.0276  23692.9  153.081
 13.2256  23313.3  152.196
 13.4236  23571.6  152.814
 13.6216  23326  152.026
 13.8196  24440.6  155.389
 14.0176  23275.7  151.926
 14.2156  22752.5  149.264
 14.4136  21200.9  145.423
 14.6116  20980.1  143.891
 14.8096  20404.5  141.883
 15.0076  19680.4  143.118
 15.2056  19099.5  136.895
 15.4036  18152.2  134.271
 15.6016  17857.1  132.273
 15.7996  17511  131.246
 15.9976  16589.2  130.608
 16.1956  16171.5  126.868
 16.3936  15765.1  124.461
 16.5916  15710.8  124.866
 16.7896  15810.2  125.319
 16.9876  15600.8  125.942
 17.1856  15597.6  124.339
 17.3836  14807.9  121.042
 17.5816  14459.9  120.08
 17.7796  14820.7  121.51
 17.9776  14806.8  122.222
 18.1756  16249.2  126.68
 18.3736  15975.2  126.16
 18.5716  14049.4  118.057
 18.7696  14164.7  118.117
 18.9676  13692.4  115.938
 19.1656  13618.6  116.167
 19.3636  13479.7  115.789
 19.5616  13541  116.214
 19.7596  13380.4  114.929
 19.9576  14113.5  118.099
 20.1556  13266.3  115.011
 20.3536  13103.7  113.69
 20.5516  12681.6  112.283
 20.7496  12513.7  111.384
 20.9476  13221.8  114.333
 21.1456  13220.1  114.66
 21.3436  12494  111.419
 21.5416  12529.8  111.579
 21.7396  12212.4  110.011
 21.9376  12452.9  110.847
 22.1356  12671.2  111.972
 22.3336  12692  112.319
 22.5316  12444.1  111.305
 22.7296  12193  109.564
 22.9276  12194.9  110.24
 23.1256  12866  112.699
 23.3236  12236.4  110.438
 23.5216  12275.2  110.273
 23.7196  12012.6  109.25
 23.9176  11773.3  107.705
 24.1156  11728.5  107.96
 24.3136  11592.3  108.142
 24.5116  11607.8  107.747
 24.7096  11478.5  106.965
 24.9076  11273.4  106.016
 25.1056  11165.8  105.718
 25.3036  10751.6  103.512
 25.5016  10883.1  104.175
 25.6996  10902.9  103.853
 25.8976  11133.4  105.379
 26.0956  10992.8  104.728
 26.2936  10664.1  102.814
 26.4916  10892.8  103.781
 26.6896  10381.2  101.609
 26.8876  10354.6  101.328
 27.0856  10437.4  101.758
 27.2836  10121.2  100.283
 27.4816  10196.7  100.437
 27.6796  10198.9  100.823
 27.8776  10317.1  101.253
 28.0756  10059.5  100.278
 28.2736  10041.3  99.7679
 28.4716  9712.81  98.1732
 28.6696  9716.65  98.0379
 28.8676  9658.43  98.0885
 29.0656  9433.97  96.9209
 29.2636  9475.67  96.8463
 29.4616  9432.51  96.8966
 29.6596  9584.85  97.2434
 29.8576  9332.55  96.6337
 30.0556  9623.72  97.9997
 30.2536  9502.12  97.175
 30.4516  9314.47  95.8522
 30.6496  9354.66  95.7882
 30.8476  9159.39  95.2167
 31.0456  9242.69  95.6139
 31.2436  8951.84  93.3799
 31.4416  8981.62  93.7339
 31.6396  9458.91  96.2413
 31.8376  9127.17  94.0889
 32.0356  9057.93  94.2918
 32.2336  8699.48  91.8045
 32.4316  8860.91  93.0558
 32.6296  8737.25  92.1722
 32.8276  8771.37  92.1953
 33.0256  8672.71  91.7483
 33.2236  8597.16  91.4895
 33.4216  8744.07  91.9571
 33.6196  8656.13  91.7976
 33.8176  8552.51  91.3984
 34.0156  8436.13  90.4008
 34.2136  8441.13  90.4624
 34.4116  8416.34  90.4793
 34.6096  8439.24  90.4805
 34.8076  8366.02  90.5
 35.0056  8519.51  91.0041
 35.2036  8404.23  90.5951
 35.4016  8406.85  90.5431
 35.5996  8240.75  89.6756
 35.7976  8253.62  90.0111
 35.9956  8190.84  89.3257
 36.1936  8279.27  89.6691
 36.3916  8119.59  88.9817
 36.5896  8382.23  91.8569
 36.7876  8166.75  89.6168
 36.9856  7988.03  88.6554
 37.1836  8071.46  88.2309
 37.3816  8061.83  88.5301
 37.5796  8039.88  90.1261
 37.7776  7749.82  86.8707
 37.9756  7792.03  86.9989
 38.1736  8140.09  89.1211
 38.3716  7873.77  87.923
 38.5696  7886.36  88.3811
 38.7676  7652.11  86.5799
 38.9656  7782.7  86.9575
 39.1636  7733.14  86.9122
 39.3616  7818.99  87.362
 39.5596  7646.44  87.2108
 39.7576  7684.75  86.8154
 39.9556  7828.64  87.2656
 40.1536  7873.5  87.7039
 40.3516  7821.21  87.511
 40.5496  8006.72  88.5123
 40.7476  7882.41  88.0373
 40.9456  7924.3  88.0214
 41.1436  7832.22  87.2297
 41.3416  7797.74  87.3705
 41.5396  7700.84  86.6409
 41.7376  7761.34  87.239
 41.9356  7749.87  87.0348
 42.1336  7663.07  86.6854
 42.3316  7653.41  86.8359
 42.5296  7786.69  87.1043
 42.7276  7754.17  87.1623
 42.9256  7711.7  86.7921
 43.1236  7542.55  85.9415
 43.3216  7670.81  86.5239
 43.5196  7499.06  85.5147
 43.7176  7560.25  86.251
 43.9156  7391.23  85.1993
 44.1136  7352.5  84.5349
 44.3116  7471.93  85.2199
 44.5096  7351.03  84.844
 44.7076  7322.89  84.6128
 44.9056  7236.68  83.9625
 45.1036  7339.05  84.1851
 45.3016  7162.01  83.6528
 45.4996  7206.19  83.852
 45.6976  7197.18  83.9721
 45.8956  7278.21  84.2869
 46.0936  7324.67  84.3158
 46.2916  7183.8  83.7235
 46.4896  7277.76  84.3017
 46.6876  7112.08  84.0305
 46.8856  6964.58  82.5322
 47.0836  6951.13  82.5856
 47.2816  6948.23  82.4606
 47.4796  7019.02  82.9795
 47.6776  6978.41  83.6664
 47.8756  6900.87  82.3935
 48.0736  7016.85  83.5086
 48.2716  6748.22  81.7435
 48.4696  6929.18  82.4252
 48.6676  6891.72  82.7849
 48.8656  6933.86  82.7696
 49.0636  6956.66  82.8398
 49.2616  6769.45  81.7565
 49.4596  6760.58  81.2851
 49.6576  6678.03  81.0029
 49.8556  6725.62  81.3127
 50.0536  6720.42  81.7233
 50.2516  6694.39  81.6637
 50.4496  6642.79  81.0468
 50.6476  6616.96  80.5685
 50.8456  6569.62  80.3582
 51.0436  6522.97  80.5196
 51.2416  6505.04  80.0757
 51.4396  6317.31  79.3057
 51.6376  6380.51  79.5391
 51.8356  6383.73  79.2027
 52.0336  6268.34  78.9523
 52.2316  6176.7  78.7113
 52.4296  6364.36  79.5865
 52.6276  6385.53  79.8398
 52.8256  6346.93  79.1625
 53.0236  6264.87  79.3024
 53.2216  6178.16  78.7633
 53.4196  6113.59  78.2999
 53.6176  6111.82  78.7538
 53.8156  6119.98  78.4852
 54.0136  6234.79  79.3798
 54.2116  6109.38  78.2469
 54.4096  6135.6  78.4753
 54.6076  6120.12  78.7105
 54.8056  6077.54  78.2279
 55.0036  6007.08  78.0269
 55.2016  6095.06  78.2072
 55.3996  6019.32  77.7632
 55.5976  6055.75  78.1821
 55.7956  6083.48  78.1809
 55.9936  5923.34  77.2708
 56.1916  6128.3  78.6072
 56.3896  6109.85  78.4908
 56.5876  6034.55  78.5509
 56.7856  5917.35  77.2626
 56.9836  5934.86  77.1773
 57.1816  6027.44  78.1518
 57.3796  6075.66  78.2391
 57.5776  6055.97  78.074
 57.7756  5977.22  78.1882
 57.9736  5968.5  77.8085
 58.1716  6007.41  78.2983
 58.3696  5965.49  77.7933
 58.5676  5992.9  77.4502
 58.7656  5894.28  77.4681
 58.9636  6122.42  78.9825
 59.1616  6015.38  78.4093
 59.3596  6076.86  78.057
 59.5576  5925.92  77.1382
 59.7556  5890.35  77.3193
 59.9536  6187.84  79.1455
 60.1516  6071.14  79.2464
 60.1996  0.0000000E+00  0.0000000E+00