File: docs/examples/opeando_xrd/IS17_D/Data/IS17_D/17_Db_f00060.xye
# /beamlines/bl04/projects/cycle2025-II/20250340211-lsimonelli/DATA/IS17_D/17_Db_f00060.xye : mythproc.py merge -s 0.006 -l 0.5 -f /beamlines/bl04/inhouse/ff/FlatField/ff_20Nov2024rod8mm60s_17keV.raw -b True -c true -o xye /beamlines/bl04/projects/cycle2025-II/20250340211-lsimonelli/DATA/IS17_D/17_Db_00060.dat
# IsMon = [6779745, 6780162, 6775836]  IsPos = [-1.5000, -2.4884, -3.4988]
# Wave = 0.4962  CalPath /beamlines/bl04/projects/cycle2025-II/20250340211-lsimonelli/DATA/Align/Si_Pos1_25keV_f00001.cal
# Date = 2025-09-24_10:23:15 Dt = 4.8000  Bin = 0.0060  <imon> = 6778581 +/- 1948 (Min/Max) 6775836 / 6780162
# icurr 251.7367  mocoIn 1.7181E-05  mocoOut 0.8068  i15 7.09955e+06  imon 6.77858e+06  i7 4.0000  iEMpd_timer 4.8000  iEMpd_1 3.5339E-08  iEMpd_2 7.9120E-08  iEMpd_3 1.6037E-08  iEMpd_4 4.8044E-08  iEMhp_timer 4.8000  iEMhp_1 4.9198E-06  iEMhp_2 -2.6219E-08  iEMhp_3 -2.5101E-08  iEMhp_4 -2.2846E-08
#      9776
 1.7416  70715.3  265.977
 1.9396  48779.3  221.185
 2.1376  35818.6  189.536
 2.3356  31790.4  178.186
 2.5336  29430.8  172.049
 2.7316  27216.3  165.566
 2.9296  26070.9  162.205
 3.1276  25551.3  160.119
 3.3256  24704.6  157.098
 3.5236  26295.8  161.881
 3.7216  24293.2  156.874
 3.9196  23640.6  153.951
 4.1176  23663.8  153.807
 4.3156  24715.7  157.377
 4.5136  26950  163.292
 4.7116  28007.1  167.616
 4.9096  27485  165.473
 5.1076  27052.9  164.746
 5.3056  27172.7  164.841
 5.5036  27101.5  164.523
 5.7016  27377.7  165.326
 5.8996  27860.3  166.004
 6.0976  28839.6  170.323
 6.2956  28802.5  169.561
 6.4936  29671.9  171.277
 6.6916  29960.6  173.113
 6.8896  30626.3  174.863
 7.0876  32160.1  179.856
 7.2856  31763.1  177.875
 7.4836  32024  177.953
 7.6816  32865.4  180.796
 7.8796  34033.8  183.994
 8.0776  35124.8  187.91
 8.2756  36894.3  191.204
 8.4736  37355.7  192.2
 8.6716  37045.9  192.017
 8.8696  37652.4  194.1
 9.0676  36770.6  191.143
 9.2656  35991.6  189.8
 9.4636  35087.8  185.86
 9.6616  34185.2  184.186
 9.8596  33572.5  181.936
 10.0576  31409.9  176.638
 10.2556  30826.5  175.455
 10.4536  29673.1  171.732
 10.6516  28784.6  169.355
 10.8496  27881.1  166.108
 11.0476  26848.6  163.018
 11.2456  26243.2  161.694
 11.4436  26814  162.615
 11.6416  26106.3  160.801
 11.8396  25041.9  157.685
 12.0376  24541.5  155.759
 12.2356  23948.5  154.268
 12.4336  24001.1  153.987
 12.6316  23996.4  154.23
 12.8296  23970.2  153.762
 13.0276  24525.4  155.743
 13.2256  24583.3  156.292
 13.4236  24422.3  155.551
 13.6216  24828.5  156.829
 13.8196  26773.7  162.286
 14.0176  23894.6  153.939
 14.2156  23378.3  151.29
 14.4136  22278.3  149.071
 14.6116  21940.7  147.136
 14.8096  21362.9  145.18
 15.0076  20345.4  145.557
 15.2056  19240.5  137.4
 15.4036  18487.1  135.505
 15.6016  18118.4  133.24
 15.7996  17779.7  132.269
 15.9976  17560.3  134.358
 16.1956  17000.1  130.071
 16.3936  16703.3  128.126
 16.5916  16636.2  128.507
 16.7896  16595.1  128.414
 16.9876  16496.3  129.479
 17.1856  16074.3  126.183
 17.3836  15614.7  124.273
 17.5816  15100.3  122.686
 17.7796  15254.7  123.247
 17.9776  14824  122.288
 18.1756  14787.5  120.88
 18.3736  14619.1  120.671
 18.5716  14336.8  119.253
 18.7696  14367.8  118.951
 18.9676  14350.1  118.671
 19.1656  13920.7  117.477
 19.3636  14041.1  118.165
 19.5616  13991.3  118.132
 19.7596  14265.3  118.677
 19.9576  14851.6  121.143
 20.1556  14016.5  118.205
 20.3536  13569.8  115.697
 20.5516  13358  115.229
 20.7496  13312.6  114.886
 20.9476  13113.2  113.864
 21.1456  13137.9  114.299
 21.3436  12929.5  113.341
 21.5416  12758.1  112.601
 21.7396  12762.1  112.458
 21.9376  12625.8  111.635
 22.1356  12891.3  113.069
 22.3336  12407.2  111.065
 22.5316  12302.5  110.691
 22.7296  12394  110.471
 22.9276  12309.5  110.753
 23.1256  12642.6  111.729
 23.3236  12707.9  112.586
 23.5216  12674.7  112.075
 23.7196  12656.2  112.154
 23.9176  12573.8  111.32
 24.1156  12252.4  110.356
 24.3136  11870.7  109.4
 24.5116  12036.5  109.684
 24.7096  11641.5  107.677
 24.9076  11499  107.054
 25.1056  11187.3  106.053
 25.3036  11071.9  105.029
 25.5016  11147.1  105.424
 25.6996  10994  104.286
 25.8976  11015  104.809
 26.0956  10943.9  104.5
 26.2936  10858.7  103.742
 26.4916  11259.5  105.488
 26.6896  10780  103.53
 26.8876  10832.2  103.625
 27.0856  10602.8  102.596
 27.2836  10370  101.35
 27.4816  10356.8  101.22
 27.6796  10362.6  101.626
 27.8776  10408.4  101.694
 28.0756  10150.5  100.725
 28.2736  10093.6  100.02
 28.4716  9834.28  98.782
 28.6696  9949.22  99.2039
 28.8676  9702.9  98.3145
 29.0656  9723.98  98.3964
 29.2636  9732.39  98.2278
 29.4616  9419.76  96.8306
 29.6596  9556.09  97.0985
 29.8576  9152.94  95.6988
 30.0556  9282.46  96.257
 30.2536  9433.15  96.826
 30.4516  9487.52  96.7406
 30.6496  9588.54  96.997
 30.8476  9425.5  96.6023
 31.0456  9402.78  96.4518
 31.2436  9511.39  96.2661
 31.4416  9349.06  95.6055
 31.6396  9488.86  96.3647
 31.8376  9394.35  95.4112
 32.0356  9271.9  95.359
 32.2336  9400.06  95.4153
 32.4316  8959.89  93.5633
 32.6296  8936.06  93.2623
 32.8276  8940.84  93.0901
 33.0256  8928.06  93.0856
 33.2236  8969.34  93.4391
 33.4216  8958.25  93.0787
 33.6196  8867.24  92.8829
 33.8176  8889.95  93.1842
 34.0156  8689.41  91.7513
 34.2136  8698.22  91.8049
 34.4116  8546.04  91.1839
 34.6096  8605.71  91.3758
 34.8076  8564.07  91.5684
 35.0056  8572.51  91.2819
 35.2036  8655.69  91.9537
 35.4016  8471.82  90.8888
 35.5996  8437.44  90.7307
 35.7976  8288.66  90.207
 35.9956  8532.1  91.1591
 36.1936  8473.88  90.7072
 36.3916  8332.83  90.1419
 36.5896  8245.73  90.6494
 36.7876  8013.69  88.7735
 36.9856  8007.48  88.7679
 37.1836  8032.28  88.0156
 37.3816  7993.28  88.1677
 37.5796  8207.2  91.06
 37.7776  8211.58  89.4413
 37.9756  8302.64  89.8253
 38.1736  8162.47  89.2538
 38.3716  8071.18  89.0281
 38.5696  8116.89  89.6557
 38.7676  7892.42  87.8992
 38.9656  8034.87  88.3237
 39.1636  7982.22  88.3027
 39.3616  7982.17  88.2425
 39.5596  7769.17  87.8991
 39.7576  7849.07  87.7369
 39.9556  7907.37  87.7033
 40.1536  8011.44  88.4765
 40.3516  8050.83  88.6993
 40.5496  8032.09  88.8501
 40.7476  8112.61  89.3038
 40.9456  7952.24  88.1678
 41.1436  8107.62  88.7479
 41.3416  7853.17  87.6833
 41.5396  7939.21  87.9616
 41.7376  7957.44  88.3312
 41.9356  7839.01  87.5201
 42.1336  8030.77  88.7369
 42.3316  7833.76  87.8416
 42.5296  7925.9  87.8677
 42.7276  7937.12  88.1834
 42.9256  7785.5  87.2075
 43.1236  7797.7  87.3784
 43.3216  7793.72  87.1073
 43.5196  7730.88  86.8124
 43.7176  7696.54  87.0123
 43.9156  7614.23  86.4747
 44.1136  7584.18  85.8561
 44.3116  7496.94  85.3796
 44.5096  7665.88  86.6366
 44.7076  7553.01  85.9247
 44.9056  7671.95  86.4731
 45.1036  7616.09  85.7778
 45.3016  7613.76  86.2619
 45.4996  7537.34  85.7762
 45.6976  7508.84  85.7968
 45.8956  7535.83  85.7423
 46.0936  7643.84  86.1094
 46.2916  7662.96  86.4454
 46.4896  7624.63  86.2488
 46.6876  7439.33  85.9241
 46.8856  7453.56  85.2645
 47.0836  7428.49  85.3702
 47.2816  7264.57  84.3097
 47.4796  7385.88  85.1236
 47.6776  7450.76  86.4474
 47.8756  7420.75  85.4393
 48.0736  7442.46  86.0305
 48.2716  7317.2  85.1173
 48.4696  7505.41  85.7862
 48.6676  7456.74  86.114
 48.8656  7437.15  85.7108
 49.0636  7492  85.9759
 49.2616  7207.11  84.3709
 49.4596  7345.64  84.7285
 49.6576  7215.49  84.2079
 49.8556  7248.78  84.4166
 50.0536  7346.26  85.4342
 50.2516  7293.31  85.2662
 50.4496  7274.66  84.7952
 50.6476  7332.12  84.8108
 50.8456  7271.9  84.5538
 51.0436  7137.06  84.2242
 51.2416  7061.18  83.4495
 51.4396  6950.08  83.1909
 51.6376  6971.72  83.1352
 51.8356  7056.02  83.2496
 52.0336  7077.52  83.9097
 52.2316  7000.72  83.807
 52.4296  6906.26  82.9478
 52.6276  6944.07  83.2868
 52.8256  7060.79  83.5271
 53.0236  7015.07  83.8817
 53.2216  7005.99  83.8552
 53.4196  6864.65  82.9235
 53.6176  7124.18  85.0023
 53.8156  6968.2  83.7306
 54.0136  6694.24  82.2489
 54.2116  6861.87  82.8933
 54.4096  6648.65  81.6696
 54.6076  6589.39  81.65
 54.8056  6591.89  81.4267
 55.0036  6697.03  82.3547
 55.2016  6587.39  81.2567
 55.3996  6406.43  80.2049
 55.5976  6534.48  81.1904
 55.7956  6480.31  80.6732
 55.9936  6562.4  81.2905
 56.1916  6462.35  80.7274
 56.3896  6260.09  79.4329
 56.5876  6345.29  80.5355
 56.7856  6304.62  79.76
 56.9836  6478.42  80.6164
 57.1816  6442.58  80.7561
 57.3796  6303.39  79.6978
 57.5776  6256.01  79.2865
 57.7756  6155.1  79.322
 57.9736  6130.52  78.8363
 58.1716  6232  79.748
 58.3696  6020.96  78.1432
 58.5676  6062.1  77.8821
 58.7656  5976.67  78.0077
 58.9636  6041.67  78.4597
 59.1616  5970.08  78.1266
 59.3596  6080.87  78.1181
 59.5576  6128.33  78.4792
 59.7556  5860.09  77.1545
 59.9536  5967.11  77.7554
 60.1516  5934.4  78.3835
 60.1996  0.0000000E+00  0.0000000E+00