File: docs/examples/opeando_xrd/IS17_D/Data/IS17_D/17_Db_f00135.xye
# /beamlines/bl04/projects/cycle2025-II/20250340211-lsimonelli/DATA/IS17_D/17_Db_f00135.xye : mythproc.py merge -s 0.006 -l 0.5 -f /beamlines/bl04/inhouse/ff/FlatField/ff_20Nov2024rod8mm60s_17keV.raw -b True -c true -o xye /beamlines/bl04/projects/cycle2025-II/20250340211-lsimonelli/DATA/IS17_D/17_Db_00135.dat
# IsMon = [6783079, 6783416, 6784552]  IsPos = [-1.5000, -2.4884, -3.4988]
# Wave = 0.4962  CalPath /beamlines/bl04/projects/cycle2025-II/20250340211-lsimonelli/DATA/Align/Si_Pos1_25keV_f00001.cal
# Date = 2025-09-25_07:19:05 Dt = 4.8000  Bin = 0.0060  <imon> = 6783682 +/- 630 (Min/Max) 6783079 / 6784552
# icurr 252.7890  mocoIn 1.7244E-05  mocoOut 0.8097  i15 7.10712e+06  imon 6.78368e+06  i7 4.0000  iEMpd_timer 4.8000  iEMpd_1 3.3493E-08  iEMpd_2 7.8873E-08  iEMpd_3 1.9452E-08  iEMpd_4 4.8358E-08  iEMhp_timer 4.8000  iEMhp_1 4.9379E-06  iEMhp_2 -2.6956E-08  iEMhp_3 -2.4096E-08  iEMhp_4 -2.0965E-08
#      9776
 1.7416  70623.8  265.839
 1.9396  48913.5  221.515
 2.1376  35734.4  189.338
 2.3356  31770.6  178.153
 2.5336  30276.6  174.526
 2.7316  27080.4  165.174
 2.9296  25537.2  160.553
 3.1276  25242.7  159.168
 3.3256  24674.9  157.026
 3.5236  26161.5  161.481
 3.7216  24141.8  156.38
 3.9196  23731.2  154.251
 4.1176  23581.5  153.543
 4.3156  24559.9  156.871
 4.5136  27067.3  163.652
 4.7116  27788.9  166.956
 4.9096  27169.4  164.511
 5.1076  26793.3  163.961
 5.3056  27032.6  164.406
 5.5036  26757.3  163.483
 5.7016  27300.5  165.095
 5.8996  27805.2  165.842
 6.0976  28648.1  169.754
 6.2956  28778.8  169.489
 6.4936  29652.2  171.217
 6.6916  29784.9  172.603
 6.8896  30697.6  175.08
 7.0876  31926.5  179.208
 7.2856  31605.9  177.438
 7.4836  32227.2  178.521
 7.6816  32927.7  180.959
 7.8796  33958.3  183.786
 8.0776  35854.4  189.839
 8.2756  37325.6  192.298
 8.4736  37484.1  192.518
 8.6716  37218.7  192.466
 8.8696  38514  196.295
 9.0676  37403.5  192.759
 9.2656  36010.4  189.83
 9.4636  35034.4  185.695
 9.6616  34262.5  184.38
 9.8596  33861.6  182.743
 10.0576  31760.6  177.661
 10.2556  31067.2  176.163
 10.4536  32025.7  178.439
 10.6516  32332.7  179.486
 10.8496  28226.8  167.133
 11.0476  27931.5  166.268
 11.2456  28238.9  167.745
 11.4436  27749.1  165.423
 11.6416  26465.1  161.878
 11.8396  25368.4  158.703
 12.0376  24599.1  155.935
 12.2356  24965.2  157.509
 12.4336  24628.2  155.978
 12.6316  24185.5  154.837
 12.8296  24404.7  155.157
 13.0276  24518.3  155.717
 13.2256  24694.6  156.649
 13.4236  24684  156.384
 13.6216  24874.8  156.983
 13.8196  27429.5  164.287
 14.0176  23990.4  154.245
 14.2156  23613.7  152.052
 14.4136  22344  149.292
 14.6116  22332.9  148.445
 14.8096  21339.6  145.082
 15.0076  20434.3  145.889
 15.2056  19431.8  138.07
 15.4036  18623  135.996
 15.6016  18300.1  133.897
 15.7996  17847.9  132.505
 15.9976  17493.7  134.084
 16.1956  17209.8  130.875
 16.3936  17006.8  129.266
 16.5916  16693.2  128.722
 16.7896  16841.3  129.353
 16.9876  16457.6  129.326
 17.1856  16135.9  126.441
 17.3836  15584.1  124.173
 17.5816  15394.5  123.899
 17.7796  15350.9  123.65
 17.9776  15066.5  123.28
 18.1756  15653  124.367
 18.3736  15335.2  123.595
 18.5716  14692.7  120.722
 18.7696  14731.6  120.444
 18.9676  14508.6  119.325
 19.1656  14185  118.576
 19.3636  14125.3  118.528
 19.5616  14210.1  119.045
 19.7596  14405.4  119.254
 19.9576  14878.1  121.243
 20.1556  13819.3  117.368
 20.3536  13735.5  116.401
 20.5516  13400.2  115.42
 20.7496  13421.2  115.351
 20.9476  13428.1  115.223
 21.1456  13317.1  115.076
 21.3436  12899  113.208
 21.5416  12873.6  113.104
 21.7396  12762.7  112.454
 21.9376  12676.4  111.851
 22.1356  12958.5  113.366
 22.3336  12499.6  111.478
 22.5316  12407.4  111.153
 22.7296  12605.2  111.404
 22.9276  12382.6  111.081
 23.1256  12703.5  111.987
 23.3236  12821  113.076
 23.5216  12792.5  112.582
 23.7196  12577.6  111.803
 23.9176  12575  111.325
 24.1156  12379.3  110.913
 24.3136  12169.9  110.792
 24.5116  12267.4  110.733
 24.7096  11954.7  109.133
 24.9076  11716.9  108.083
 25.1056  11391.3  107.028
 25.3036  11111.3  105.216
 25.5016  11110.9  105.258
 25.6996  11030.1  104.453
 25.8976  11303.4  106.178
 26.0956  11102.9  105.241
 26.2936  11045.4  104.634
 26.4916  11177.2  105.111
 26.6896  10890.8  104.062
 26.8876  10733.8  103.16
 27.0856  10685.5  102.99
 27.2836  10416.3  101.578
 27.4816  10396.7  101.415
 27.6796  10284.2  101.225
 27.8776  10682.1  103.036
 28.0756  10208.6  101.011
 28.2736  10385.1  101.458
 28.4716  10030.1  99.7561
 28.6696  10022.9  99.5648
 28.8676  9853.86  99.0791
 29.0656  9744.28  98.4987
 29.2636  9881.49  98.9843
 29.4616  9603.92  97.7655
 29.6596  9526.98  96.9441
 29.8576  9426.67  97.1133
 30.0556  9492.71  97.3279
 30.2536  9543.08  97.3814
 30.4516  9785.83  98.248
 30.6496  9763.36  97.8652
 30.8476  9547.93  97.2246
 31.0456  9552.22  97.2106
 31.2436  9569.59  96.5566
 31.4416  9476.93  96.2736
 31.6396  9678.34  97.3389
 31.8376  9474.56  95.8259
 32.0356  9510.03  96.5979
 32.2336  9462.8  95.7438
 32.4316  9056.24  94.0652
 32.6296  8992.83  93.5692
 32.8276  9155.45  94.1949
 33.0256  8980.28  93.3631
 33.2236  9008.85  93.638
 33.4216  9058.13  93.5839
 33.6196  9016.13  93.663
 33.8176  8912.69  93.3022
 34.0156  8816.19  92.4119
 34.2136  8907.79  92.9169
 34.4116  8664.85  91.8122
 34.6096  8780.52  92.2838
 34.8076  8677  92.1736
 35.0056  8507.02  90.9355
 35.2036  8828.03  92.8651
 35.4016  8522.27  91.1563
 35.5996  8483.84  90.9885
 35.7976  8514.87  91.4247
 35.9956  8635.84  91.7143
 36.1936  8522.81  90.9733
 36.3916  8460.12  90.8272
 36.5896  8425.1  91.6342
 36.7876  8147  89.5024
 36.9856  8030.88  88.8795
 37.1836  7984.87  87.7477
 37.3816  8146.37  88.9951
 37.5796  8076.88  90.3382
 37.7776  8392.91  90.4228
 37.9756  8335.69  90.0011
 38.1736  8390.79  90.4947
 38.3716  8273.21  90.1326
 38.5696  8092.42  89.5149
 38.7676  8018.24  88.618
 38.9656  8064.75  88.5033
 39.1636  8105.8  89.0019
 39.3616  8114.94  88.9874
 39.5596  7920.25  88.7428
 39.7576  7901.35  88.0298
 39.9556  8079.37  88.6506
 40.1536  8181.99  89.4081
 40.3516  8139.74  89.1903
 40.5496  8095.01  89.209
 40.7476  8111.43  89.2937
 40.9456  8105.32  89.0115
 41.1436  8135.88  88.9055
 41.3416  7964.16  88.2981
 41.5396  8060.96  88.6323
 41.7376  7979.28  88.4507
 41.9356  7940.02  88.0891
 42.1336  8078.24  88.998
 42.3316  7929.16  88.3805
 42.5296  7940.67  87.9492
 42.7276  8000.7  88.5346
 42.9256  7880.28  87.7359
 43.1236  7916.02  88.0424
 43.3216  7969.57  88.0795
 43.5196  7805.59  87.2353
 43.7176  7862.45  87.9493
 43.9156  7643.83  86.6367
 44.1136  7686.92  86.4302
 44.3116  7805.81  87.1076
 44.5096  7530.75  85.8678
 44.7076  7764.85  87.1222
 44.9056  7847.63  87.4498
 45.1036  7840.52  87.0297
 45.3016  7742.93  86.9901
 45.4996  7686.47  86.6124
 45.6976  7648.59  86.5784
 45.8956  7701.93  86.6936
 46.0936  7640.1  86.0987
 46.2916  7718.12  86.7624
 46.4896  7695.79  86.6616
 46.6876  7580.84  86.7466
 46.8856  7498.65  85.5221
 47.0836  7673.58  86.772
 47.2816  7450.69  85.3833
 47.4796  7564.36  86.143
 47.6776  7399.61  86.1608
 47.8756  7562.53  86.2505
 48.0736  7528.26  86.5161
 48.2716  7337.4  85.2268
 48.4696  7543.85  86.0118
 48.6676  7495.96  86.3366
 48.8656  7505.48  86.1214
 49.0636  7632.02  86.7771
 49.2616  7401.4  85.4934
 49.4596  7470.67  85.4446
 49.6576  7439.82  85.4994
 49.8556  7452.64  85.5943
 50.0536  7424.2  85.8934
 50.2516  7426.65  86.0363
 50.4496  7307.51  84.9973
 50.6476  7459.25  85.5429
 50.8456  7317.65  84.8152
 51.0436  7171.91  84.4236
 51.2416  7057.38  83.4161
 51.4396  6886.36  82.8019
 51.6376  7102.15  83.9113
 51.8356  7098.31  83.4993
 52.0336  7033.68  83.6308
 52.2316  7045.65  84.0762
 52.4296  7035.43  83.7104
 52.6276  6929.18  83.1807
 52.8256  7038.59  83.3898
 53.0236  7102.1  84.4198
 53.2216  7065.88  84.2218
 53.4196  7055.88  84.0854
 53.6176  6947.21  83.9459
 53.8156  7027.84  84.0901
 54.0136  6784.71  82.8008
 54.2116  6967.3  83.5366
 54.4096  6705.08  82.0237
 54.6076  6639.23  81.9557
 54.8056  6558.65  81.2236
 55.0036  6771.75  82.8222
 55.2016  6687.73  81.888
 55.3996  6511.95  80.8698
 55.5976  6570.84  81.4149
 55.7956  6500.9  80.7896
 55.9936  6722.07  82.2768
 56.1916  6524.02  81.1003
 56.3896  6386.04  80.1965
 56.5876  6388.2  80.8029
 56.7856  6471.57  80.8116
 56.9836  6404.55  80.1518
 57.1816  6559.69  81.5058
 57.3796  6380.8  80.189
 57.5776  6308.23  79.653
 57.7756  6249.4  79.9213
 57.9736  6285.14  79.8176
 58.1716  6241.33  79.8065
 58.3696  6106.88  78.7001
 58.5676  6039.73  77.7421
 58.7656  6107.34  78.8499
 58.9636  6099.55  78.8259
 59.1616  6045.1  78.6114
 59.3596  6185.75  78.7679
 59.5576  6140.99  78.5393
 59.7556  6012.55  78.1309
 59.9536  6098.2  78.5838
 60.1516  6134.13  79.6704
 60.1996  0.0000000E+00  0.0000000E+00