File: docs/examples/opeando_xrd/IS17_D/Data/IS17_D/17_Db_f00001.xye
# /beamlines/bl04/projects/cycle2025-II/20250340211-lsimonelli/DATA/IS17_D/17_Db_f00001.xye : mythproc.py merge -s 0.006 -l 0.5 -f /beamlines/bl04/inhouse/ff/FlatField/ff_20Nov2024rod8mm60s_17keV.raw -b True -c true -o xye /beamlines/bl04/projects/cycle2025-II/20250340211-lsimonelli/DATA/IS17_D/17_Db_00001.dat
# IsMon = [6777262, 6772277, 6776623]  IsPos = [-1.5000, -2.4886, -3.4988]
# Wave = 0.4962  CalPath /beamlines/bl04/projects/cycle2025-II/20250340211-lsimonelli/DATA/Align/Si_Pos1_25keV_f00001.cal
# Date = 2025-09-23_17:59:27 Dt = 4.8000  Bin = 0.0060  <imon> = 6775387 +/- 2215 (Min/Max) 6772277 / 6777262
# icurr 252.6930  mocoIn 1.7246E-05  mocoOut 0.8089  i15 7.08453e+06  imon 6.77539e+06  i7 5.3333  iEMpd_timer 4.8000  iEMpd_1 3.7160E-08  iEMpd_2 7.8220E-08  iEMpd_3 1.7030E-08  iEMpd_4 4.9325E-08  iEMhp_timer 4.8000  iEMhp_1 4.9384E-06  iEMhp_2 -2.5677E-08  iEMhp_3 -2.3976E-08  iEMhp_4 -2.1778E-08
#      9776
 1.7416  71454.2  267.349
 1.9396  49548.8  222.916
 2.1376  36383.2  191.013
 2.3356  32270.4  179.516
 2.5336  30005.1  173.71
 2.7316  27546.9  166.592
 2.9296  26359.4  163.108
 3.1276  25815.3  160.955
 3.3256  25112  158.423
 3.5236  26686.3  163.244
 3.7216  24230.3  156.669
 3.9196  23706.5  154.167
 4.1176  23671.1  153.829
 4.3156  24465.4  156.565
 4.5136  26716.9  162.596
 4.7116  27934.6  167.402
 4.9096  27177.3  164.54
 5.1076  26833.4  164.069
 5.3056  26687.4  163.495
 5.5036  26304.8  162.179
 5.7016  26774.2  163.496
 5.8996  27280.1  164.266
 6.0976  28130.4  168.199
 6.2956  28183.7  167.729
 6.4936  29272.8  170.127
 6.6916  29671.3  172.273
 6.8896  30458.5  174.383
 7.0876  31766.1  178.749
 7.2856  31188.6  176.266
 7.4836  31568.4  176.676
 7.6816  32314.8  179.272
 7.8796  32847.4  180.77
 8.0776  34515.1  186.278
 8.2756  36264  189.556
 8.4736  36553.3  190.13
 8.6716  36076  189.514
 8.8696  36662.2  191.498
 9.0676  35724.4  188.366
 9.2656  34983.7  187.092
 9.4636  33719.8  182.163
 9.6616  32958.9  180.816
 9.8596  32053.2  177.794
 10.0576  30921.6  174.92
 10.2556  29265.7  170.985
 10.4536  28355.8  167.896
 10.6516  27317.8  165.009
 10.8496  26484.3  161.879
 11.0476  25525.8  158.907
 11.2456  24819.5  157.708
 11.4436  25066.8  157.225
 11.6416  26334.4  161.496
 11.8396  24271.2  155.234
 12.0376  23410  152.102
 12.2356  23409.1  152.556
 12.4336  23278.4  151.648
 12.6316  23243.6  151.79
 12.8296  23359.1  151.782
 13.0276  23591.7  152.758
 13.2256  23897.3  154.091
 13.4236  23898.6  153.874
 13.6216  24055.3  154.364
 13.8196  26144.1  160.201
 14.0176  23287.4  152.007
 14.2156  22958.6  149.92
 14.4136  21668.4  147.019
 14.6116  21309.7  145.01
 14.8096  20604.7  142.563
 15.0076  19754.5  143.432
 15.2056  18799  135.805
 15.4036  17942.2  133.493
 15.6016  17579.1  131.245
 15.7996  17152  129.906
 15.9976  16812.7  131.459
 16.1956  16436  127.878
 16.3936  16213.1  126.195
 16.5916  15943.8  125.787
 16.7896  16017.6  126.128
 16.9876  15760.7  126.573
 17.1856  15725.9  124.705
 17.3836  15211  122.671
 17.5816  14696.6  121.051
 17.7796  14617.5  120.663
 17.9776  14089.8  119.209
 18.1756  13969.1  117.413
 18.3736  13817.3  117.324
 18.5716  13598.9  116.149
 18.7696  13704.8  116.175
 18.9676  13553.7  115.324
 19.1656  13246.8  114.769
 19.3636  13306  115.14
 19.5616  13274.6  115.063
 19.7596  13528.8  115.563
 19.9576  13574.1  115.804
 20.1556  14243.2  119.159
 20.3536  13647.6  116.027
 20.5516  13121.4  114.201
 20.7496  12840  112.823
 20.9476  12779.2  112.4
 21.1456  12726.7  112.503
 21.3436  12532.6  111.587
 21.5416  12357.3  110.817
 21.7396  12225.2  110.068
 21.9376  12284.2  110.108
 22.1356  12393.2  110.868
 22.3336  12019  109.304
 22.5316  12068.5  109.637
 22.7296  12144.6  109.358
 22.9276  11927.8  109.031
 23.1256  12109.5  109.344
 23.3236  12355.9  110.996
 23.5216  12138.5  109.656
 23.7196  12398.1  110.992
 23.9176  12282.6  110.011
 24.1156  12078.5  109.545
 24.3136  11743.9  108.826
 24.5116  11740.9  108.337
 24.7096  11338.9  106.274
 24.9076  11268.1  105.983
 25.1056  10885  104.368
 25.3036  10741.5  103.522
 25.5016  10690.5  103.246
 25.6996  10655.7  102.667
 25.8976  10694.6  103.277
 26.0956  10570.3  102.686
 26.2936  10615.7  102.58
 26.4916  10766.5  103.158
 26.6896  10465  102.007
 26.8876  10505  102.049
 27.0856  10157.6  100.383
 27.2836  10100.6  100.022
 27.4816  9929.03  99.1119
 27.6796  9876.12  99.2095
 27.8776  10120.9  100.278
 28.0756  9730.46  98.6108
 28.2736  9771.15  98.4126
 28.4716  9651.78  97.8579
 28.6696  9719.03  98.0409
 28.8676  9495.57  97.2591
 29.0656  9426.57  96.8797
 29.2636  9500.54  96.9721
 29.4616  9155.02  95.4613
 29.6596  9192.76  95.2358
 29.8576  8893.66  94.3255
 30.0556  9061.97  95.1008
 30.2536  9131.88  95.2697
 30.4516  9109.93  94.7831
 30.6496  9361  95.8107
 30.8476  9235.12  95.6125
 31.0456  9340.21  96.1063
 31.2436  9230.82  94.816
 31.4416  9232.87  95.0293
 31.6396  9084.98  94.3044
 31.8376  9126.97  94.0535
 32.0356  8910.26  93.4885
 32.2336  8961.9  93.1699
 32.4316  8652.31  91.9483
 32.6296  8684.66  91.8893
 32.8276  8790.71  92.3048
 33.0256  8632.34  91.5305
 33.2236  8754.49  92.3154
 33.4216  8593.23  91.1929
 33.6196  8681.57  91.9454
 33.8176  8731.29  92.344
 34.0156  8619.35  91.3832
 34.2136  8591.27  91.2433
 34.4116  8286.2  89.7864
 34.6096  8326.93  89.8831
 34.8076  8355.73  90.4498
 35.0056  8241.3  89.5042
 35.2036  8561.5  91.447
 35.4016  8278.99  89.8428
 35.5996  8226.42  89.593
 35.7976  8126.18  89.3011
 35.9956  8339.67  90.1329
 36.1936  8324.22  89.8943
 36.3916  8091  88.8249
 36.5896  8178.88  90.7451
 36.7876  7917.6  88.2392
 36.9856  7748.01  87.3044
 37.1836  7737.79  86.3843
 37.3816  7800.89  87.0929
 37.5796  7968.01  89.7258
 37.7776  8010.18  88.3314
 37.9756  7869.8  87.4396
 38.1736  7978.31  88.231
 38.3716  7915.43  88.1397
 38.5696  7776.83  87.7538
 38.7676  7755.09  87.1536
 38.9656  7802.85  87.056
 39.1636  7877.47  87.7145
 39.3616  7712.65  86.755
 39.5596  7679.32  87.3942
 39.7576  7682.61  86.8016
 39.9556  7649.6  86.2606
 40.1536  7854.45  87.5917
 40.3516  7792.12  87.2742
 40.5496  7746.32  87.0498
 40.7476  7808.11  87.6186
 40.9456  7800.83  87.3317
 41.1436  7907.67  87.6485
 41.3416  7722.96  86.9521
 41.5396  7702.78  86.644
 41.7376  7594.96  86.2846
 41.9356  7642.23  86.4163
 42.1336  7864.94  87.8047
 42.3316  7708.05  87.1399
 42.5296  7742.38  86.8516
 42.7276  7756.56  87.1693
 42.9256  7573.33  85.9993
 43.1236  7541.12  85.9305
 43.3216  7683.51  86.5894
 43.5196  7684.42  86.5025
 43.7176  7616.01  86.5648
 43.9156  7392.07  85.2054
 44.1136  7394.52  84.778
 44.3116  7390.51  84.7646
 44.5096  7537.83  85.918
 44.7076  7462.1  85.4014
 44.9056  7570.94  85.8838
 45.1036  7395.69  84.5117
 45.3016  7430.55  85.2119
 45.4996  7537.82  85.7642
 45.6976  7189.96  83.9361
 45.8956  7456.7  85.3044
 46.0936  7447  84.9982
 46.2916  7345.32  84.6477
 46.4896  7467.53  85.3747
 46.6876  7367.4  85.5226
 46.8856  7284.8  84.3003
 47.0836  7311.12  84.6985
 47.2816  7234.42  84.1389
 47.4796  7244.6  84.3024
 47.6776  7171.08  84.8133
 47.8756  7199.57  84.1529
 48.0736  7328.58  85.3659
 48.2716  7223.26  84.5726
 48.4696  7310.04  84.6628
 48.6676  7294.39  85.1685
 48.8656  7200.18  84.3354
 49.0636  7324.12  85.0052
 49.2616  7169.83  84.1465
 49.4596  7256.35  84.1975
 49.6576  7143.69  83.7816
 49.8556  7188.5  84.0645
 50.0536  7197.71  84.5585
 50.2516  7177.28  84.5558
 50.4496  7118.18  83.8312
 50.6476  7271.89  84.4517
 50.8456  7211.91  84.1873
 51.0436  6988.1  83.342
 51.2416  6811.74  81.9551
 51.4396  6875.72  82.747
 51.6376  6864.42  82.5056
 51.8356  7007.18  82.8842
 52.0336  6842.74  82.479
 52.2316  6878.03  83.0498
 52.4296  6868.35  82.7011
 52.6276  6834.03  82.6089
 52.8256  6937.51  82.7824
 53.0236  6955.31  83.5498
 53.2216  6888.18  83.3684
 53.4196  6848.8  82.835
 53.6176  6814.2  83.1475
 53.8156  6876.97  83.1881
 54.0136  6517.1  81.1475
 54.2116  6602.08  81.3075
 54.4096  6514.83  80.8514
 54.6076  6486.23  81.0009
 54.8056  6488.8  80.811
 55.0036  6557.55  81.4942
 55.2016  6439.83  80.3351
 55.3996  6215.43  78.9921
 55.5976  6377.79  80.2069
 55.7956  6275.61  79.3779
 55.9936  6358.87  80.0277
 56.1916  6346.27  79.998
 56.3896  6232.16  79.2532
 56.5876  6217.95  79.701
 56.7856  6200.68  79.0955
 56.9836  6324.19  79.6568
 57.1816  6269.98  79.6826
 57.3796  6114.74  78.5041
 57.5776  6222.41  79.061
 57.7756  6027.03  78.4841
 57.9736  6082.86  78.5224
 58.1716  5964.57  78.0102
 58.3696  5881.4  77.2402
 58.5676  5992.15  77.4267
 58.7656  5848.86  77.1711
 58.9636  5935.34  77.77
 59.1616  5685.22  76.2422
 59.3596  5882.03  76.8069
 59.5576  5870.95  76.7909
 59.7556  5815.29  76.8365
 59.9536  5943.87  77.581
 60.1516  5581.19  75.9927
 60.1996  0.0000000E+00  0.0000000E+00