File: docs/examples/opeando_xrd/IS17_D/Data/IS17_D/17_Da_f00151.xye
# /beamlines/bl04/projects/cycle2025-II/20250340211-lsimonelli/DATA/IS17_D/17_Da_f00151.xye : mythproc.py merge -s 0.006 -l 0.5 -f /beamlines/bl04/inhouse/ff/FlatField/ff_20Nov2024rod8mm60s_17keV.raw -b True -c true -o xye /beamlines/bl04/projects/cycle2025-II/20250340211-lsimonelli/DATA/IS17_D/17_Da_00151.dat
# IsMon = [6784309, 6784692, 6784621]  IsPos = [-1.5000, -2.4883, -3.4988]
# Wave = 0.4962  CalPath /beamlines/bl04/projects/cycle2025-II/20250340211-lsimonelli/DATA/Align/Si_Pos1_25keV_f00001.cal
# Date = 2025-09-25_11:38:11 Dt = 4.8000  Bin = 0.0060  <imon> = 6784541 +/- 166 (Min/Max) 6784309 / 6784692
# icurr 253.0017  mocoIn 1.7252E-05  mocoOut 0.8089  i15 7.10489e+06  imon 6.78454e+06  i7 4.0000  iEMpd_timer 4.8000  iEMpd_1 3.3994E-08  iEMpd_2 7.7065E-08  iEMpd_3 1.6928E-08  iEMpd_4 4.7278E-08  iEMhp_timer 4.8000  iEMhp_1 4.9403E-06  iEMhp_2 -2.6759E-08  iEMhp_3 -2.4201E-08  iEMhp_4 -2.0587E-08
#      9776
 1.7416  71059.6  266.651
 1.9396  46713.6  216.472
 2.1376  33127.7  182.297
 2.3356  29722.6  172.311
 2.5336  27787.6  167.194
 2.7316  26000.8  161.837
 2.9296  24826  158.307
 3.1276  24302.9  156.176
 3.3256  23951.8  154.73
 3.5236  26110.7  161.335
 3.7216  23599.7  154.623
 3.9196  23241.4  152.668
 4.1176  23100.2  151.974
 4.3156  24398.2  156.354
 4.5136  26847.2  162.985
 4.7116  27890.1  167.268
 4.9096  27069.7  164.222
 5.1076  26898.6  164.286
 5.3056  27265.8  165.133
 5.5036  27110.2  164.552
 5.7016  27629.8  166.091
 5.8996  28436.8  167.703
 6.0976  29042.8  170.94
 6.2956  29416.9  171.361
 6.4936  30011.1  172.27
 6.6916  30299.8  174.098
 6.8896  31067.3  176.151
 7.0876  32402.4  180.551
 7.2856  32147.3  178.97
 7.4836  32488.2  179.33
 7.6816  33360.2  182.174
 7.8796  34699.6  185.789
 8.0776  36169.3  190.673
 8.2756  38089.5  194.258
 8.4736  39018.2  196.418
 8.6716  38082.2  194.686
 8.8696  37845.5  194.569
 9.0676  37255.8  192.397
 9.2656  36335.7  190.696
 9.4636  35720.5  187.472
 9.6616  35325.9  187.225
 9.8596  33857.9  182.747
 10.0576  32027.2  178.41
 10.2556  31026.5  176.041
 10.4536  30125.7  173.065
 10.6516  29345.1  171.004
 10.8496  28581.3  168.174
 11.0476  27704  165.6
 11.2456  27401.7  165.227
 11.4436  27591.1  164.95
 11.6416  27104.1  163.862
 11.8396  25207.3  158.224
 12.0376  25206.7  157.858
 12.2356  24627.3  156.436
 12.4336  24599.9  155.892
 12.6316  24290.8  155.176
 12.8296  24694.4  156.093
 13.0276  25198.9  157.869
 13.2256  25187  158.201
 13.4236  24957.6  157.243
 13.6216  24992.3  157.371
 13.8196  25157.2  157.654
 14.0176  24684.9  156.458
 14.2156  23955.3  153.162
 14.4136  22664.9  150.35
 14.6116  22498.5  149.005
 14.8096  21938  147.125
 15.0076  20649.2  146.579
 15.2056  20394.1  141.45
 15.4036  19468  139.048
 15.6016  18910.5  136.114
 15.7996  18670.9  135.53
 15.9976  17835.9  135.456
 16.1956  17222.1  130.946
 16.3936  16940.3  129.035
 16.5916  16769.4  129.016
 16.7896  16880.6  129.51
 16.9876  16584.8  129.844
 17.1856  16305.7  127.104
 17.3836  16080.3  126.114
 17.5816  15566  124.582
 17.7796  15544  124.423
 17.9776  15209.6  123.879
 18.1756  15234.5  122.683
 18.3736  15091.3  122.613
 18.5716  14944.9  121.759
 18.7696  14951.4  121.354
 18.9676  14591.2  119.684
 19.1656  14447.4  119.663
 19.3636  14469.1  119.962
 19.5616  14339.6  119.592
 19.7596  14411.7  119.288
 19.9576  14814.1  120.99
 20.1556  14551  120.449
 20.3536  13977.8  117.422
 20.5516  13715.4  116.768
 20.7496  13506.6  115.723
 20.9476  13355.8  114.915
 21.1456  13552.9  116.096
 21.3436  13309.2  114.999
 21.5416  13161.9  114.362
 21.7396  12984  113.429
 21.9376  13112.2  113.754
 22.1356  12921.7  113.195
 22.3336  13159.3  114.382
 22.5316  13145.3  114.412
 22.7296  13003.1  113.143
 22.9276  13139.1  114.424
 23.1256  13153.1  113.949
 23.3236  13000.2  113.847
 23.5216  12681.3  112.097
 23.7196  12651  112.131
 23.9176  12631.7  111.575
 24.1156  12485.8  111.409
 24.3136  12077.3  110.368
 24.5116  12153.5  110.237
 24.7096  11847.1  108.656
 24.9076  11597.8  107.53
 25.1056  11248.2  106.364
 25.3036  11250.6  105.883
 25.5016  11247  105.899
 25.6996  11114.9  104.858
 25.8976  11236  105.864
 26.0956  11308.4  106.228
 26.2936  11241.8  105.556
 26.4916  11229.1  105.378
 26.6896  10893.8  104.088
 26.8876  10851.8  103.735
 27.0856  10891.6  103.986
 27.2836  10627.3  102.664
 27.4816  10512.9  101.983
 27.6796  10451.5  102.065
 27.8776  10369.3  101.518
 28.0756  10438.3  102.144
 28.2736  10301.8  101.053
 28.4716  10153.5  100.369
 28.6696  10141.6  100.162
 28.8676  9997.11  99.7928
 29.0656  9829.89  98.9444
 29.2636  9973.16  99.4447
 29.4616  9847.91  99.003
 29.6596  9845.06  98.5501
 29.8576  9775.74  98.8964
 30.0556  9663.81  98.202
 30.2536  9976.46  99.5702
 30.4516  9658.76  97.6246
 30.6496  9572.35  96.9125
 30.8476  9635.39  97.6737
 31.0456  9435.14  96.6179
 31.2436  9455.23  95.9815
 31.4416  9461.12  96.1912
 31.6396  9453.09  96.2009
 31.8376  9463.65  95.7944
 32.0356  9384.28  95.9629
 32.2336  9335.2  95.0884
 32.4316  9239.24  94.9726
 32.6296  9184.93  94.5679
 32.8276  9211.52  94.486
 33.0256  9102.71  93.9992
 33.2236  9098.71  94.1173
 33.4216  9241.66  94.5392
 33.6196  9079.01  94.0057
 33.8176  9119.36  94.3791
 34.0156  8929.98  93.008
 34.2136  8895.84  92.8667
 34.4116  8853.44  92.9166
 34.6096  8848.96  92.6565
 34.8076  8685.43  92.2077
 35.0056  8769.32  92.3359
 35.2036  8726.16  92.3177
 35.4016  8684.3  92.0189
 35.5996  8587.96  91.5391
 35.7976  8541.6  91.577
 35.9956  8636.14  91.7149
 36.1936  8524.94  90.9929
 36.3916  8501.2  91.0033
 36.5896  8432.93  91.6658
 36.7876  8483.81  91.333
 36.9856  8384.73  90.8242
 37.1836  8399.52  90.0003
 37.3816  8445.5  90.6156
 37.5796  8326.61  91.7229
 37.7776  8228.23  89.5359
 37.9756  8204.86  89.285
 38.1736  8262.54  89.7982
 38.3716  8242.26  89.9706
 38.5696  8189.75  90.0559
 38.7676  7941.19  88.1926
 38.9656  8049.11  88.4228
 39.1636  7904.7  87.8901
 39.3616  8086.55  88.8268
 39.5596  7958.64  88.9639
 39.7576  7968.97  88.392
 39.9556  8085.07  88.6817
 40.1536  8173.86  89.3664
 40.3516  8106.47  89.0112
 40.5496  8231.48  89.9614
 40.7476  8134  89.431
 40.9456  8224.11  89.6693
 41.1436  8131.12  88.8827
 41.3416  8081.62  88.9158
 41.5396  8084.29  88.7033
 41.7376  8063.11  88.9194
 41.9356  7953.19  88.1636
 42.1336  8054.72  88.8809
 42.3316  8051.85  89.0653
 42.5296  8035.58  88.4849
 42.7276  8024.3  88.6661
 42.9256  7971.6  88.2464
 43.1236  7901.53  87.9633
 43.3216  7954.23  88.0023
 43.5196  7868.12  87.5907
 43.7176  7743.5  87.2893
 43.9156  7746.2  87.2156
 44.1136  7749.46  86.7825
 44.3116  7809.74  87.1329
 44.5096  7645.35  86.5208
 44.7076  7749.94  87.0403
 44.9056  7654.01  86.3663
 45.1036  7572.88  85.5337
 45.3016  7452.61  85.3514
 45.4996  7435.61  85.1919
 45.6976  7452.93  85.4653
 45.8956  7382.59  84.8799
 46.0936  7506.3  85.3555
 46.2916  7565.37  85.9067
 46.4896  7430.25  85.1691
 46.6876  7286.28  85.0424
 46.8856  7237.27  84.0253
 47.0836  7225.63  84.203
 47.2816  7235.78  84.1441
 47.4796  7301.2  84.6222
 47.6776  7165.66  84.784
 47.8756  7162.68  83.944
 48.0736  7244.03  84.8801
 48.2716  6979.7  83.172
 48.4696  7059.66  83.2306
 48.6676  6995.89  83.3997
 48.8656  7145.01  84.0111
 49.0636  7095.87  83.6699
 49.2616  6901.29  82.4467
 49.4596  6998.06  82.8416
 49.6576  6986.25  82.8514
 49.8556  7069.3  83.365
 50.0536  6974.95  83.2518
 50.2516  6896.51  82.9165
 50.4496  6833.05  82.1869
 50.6476  6940.81  82.5183
 50.8456  6882.79  82.2592
 51.0436  6787.03  82.1292
 51.2416  6759.59  81.6379
 51.4396  6576.38  80.9152
 51.6376  6645.29  81.1641
 51.8356  6715.43  81.2232
 52.0336  6489.68  80.347
 52.2316  6536.07  80.9834
 52.4296  6590.1  81.0081
 52.6276  6589.83  81.1213
 52.8256  6552.42  80.4549
 53.0236  6501.6  80.7786
 53.2216  6487.61  80.6995
 53.4196  6296.12  79.451
 53.6176  6418.88  80.6973
 53.8156  6397.43  80.2308
 54.0136  6422.79  80.5745
 54.2116  6387.79  80.0121
 54.4096  6366.67  79.9275
 54.6076  6414.42  80.5796
 54.8056  6221.14  79.1473
 55.0036  6288.42  79.8395
 55.2016  6369.42  79.9455
 55.3996  6361.84  79.944
 55.5976  6344.89  80.023
 55.7956  6264.64  79.3298
 55.9936  6204.77  79.0869
 56.1916  6302.37  79.7263
 56.3896  6328.02  79.8807
 56.5876  6214.57  79.7094
 56.7856  6197.58  79.0825
 56.9836  6155.8  78.6011
 57.1816  6242.31  79.5355
 57.3796  6261.57  79.455
 57.5776  6274.17  79.4627
 57.7756  6147.06  79.2921
 57.9736  6161.09  79.0542
 58.1716  6184.32  79.4475
 58.3696  6142.47  78.9287
 58.5676  6177.37  78.6218
 58.7656  6117.03  78.9127
 58.9636  6287.71  80.0392
 59.1616  6247.31  79.9135
 59.3596  6231.7  79.0634
 59.5576  6194.46  78.8851
 59.7556  6266.34  79.7675
 59.9536  6327.98  80.0553
 60.1516  6280.75  80.6216
 60.1996  0.0000000E+00  0.0000000E+00