File: docs/examples/opeando_xrd/IS17_D/Data/IS17_D/17_Da_f00110.xye
# /beamlines/bl04/projects/cycle2025-II/20250340211-lsimonelli/DATA/IS17_D/17_Da_f00110.xye : mythproc.py merge -s 0.006 -l 0.5 -f /beamlines/bl04/inhouse/ff/FlatField/ff_20Nov2024rod8mm60s_17keV.raw -b True -c true -o xye /beamlines/bl04/projects/cycle2025-II/20250340211-lsimonelli/DATA/IS17_D/17_Da_00110.dat
# IsMon = [6747337, 6748070, 6751350]  IsPos = [-1.4999, -2.4883, -3.4988]
# Wave = 0.4962  CalPath /beamlines/bl04/projects/cycle2025-II/20250340211-lsimonelli/DATA/Align/Si_Pos1_25keV_f00001.cal
# Date = 2025-09-25_00:14:08 Dt = 4.8000  Bin = 0.0060  <imon> = 6748919 +/- 1745 (Min/Max) 6747337 / 6751350
# icurr 249.2115  mocoIn 1.7004E-05  mocoOut 0.7982  i15 7.06879e+06  imon 6.74892e+06  i7 4.0000  iEMpd_timer 4.8000  iEMpd_1 3.4405E-08  iEMpd_2 7.8205E-08  iEMpd_3 1.6975E-08  iEMpd_4 4.7042E-08  iEMhp_timer 4.8000  iEMhp_1 4.8705E-06  iEMhp_2 -2.5736E-08  iEMhp_3 -2.3983E-08  iEMhp_4 -2.2249E-08
#      9776
 1.7416  70947.9  266.468
 1.9396  46954.9  217.058
 2.1376  34129.8  185.051
 2.3356  30670.8  175.055
 2.5336  28760.7  170.113
 2.7316  27416.8  166.201
 2.9296  26474.6  163.494
 3.1276  25591.6  160.276
 3.3256  25152.6  158.574
 3.5236  26686.4  163.117
 3.7216  24405  157.242
 3.9196  23564.3  153.73
 4.1176  23472.1  153.2
 4.3156  24679.4  157.242
 4.5136  26902.1  163.156
 4.7116  28053.3  167.761
 4.9096  27287.1  164.885
 5.1076  27085  164.858
 5.3056  27339.9  165.347
 5.5036  27106.3  164.542
 5.7016  27302.9  165.103
 5.8996  28017.4  166.463
 6.0976  28718.1  169.978
 6.2956  29281.1  170.962
 6.4936  29963.8  172.128
 6.6916  30358.4  174.272
 6.8896  31275.4  176.733
 7.0876  32385.6  180.589
 7.2856  32249.6  179.254
 7.4836  32580.2  179.588
 7.6816  33691.8  183.078
 7.8796  34677.7  185.721
 8.0776  36448.1  191.398
 8.2756  38203.6  194.532
 8.4736  38864.2  196.017
 8.6716  37946  194.336
 8.8696  37844  194.562
 9.0676  37076.1  191.92
 9.2656  36036.2  189.908
 9.4636  35906.8  187.941
 9.6616  35045  186.463
 9.8596  33655.1  182.215
 10.0576  31842.1  177.913
 10.2556  30554.5  174.709
 10.4536  29233  170.496
 10.6516  28800.8  169.419
 10.8496  27722.4  165.625
 11.0476  27073.2  163.704
 11.2456  26395.6  162.175
 11.4436  26071.7  160.347
 11.6416  27678  165.587
 11.8396  25328.4  158.609
 12.0376  25229.2  157.922
 12.2356  24690.1  156.638
 12.4336  24497.3  155.571
 12.6316  24291.5  155.183
 12.8296  24494.6  155.461
 13.0276  25152.4  157.72
 13.2256  25212  158.28
 13.4236  25221.5  158.075
 13.6216  25063.7  157.6
 13.8196  25081.6  157.415
 14.0176  24748  156.655
 14.2156  24033.2  153.413
 14.4136  22997.3  151.458
 14.6116  22649.6  149.508
 14.8096  22024.7  147.41
 15.0076  20837.1  147.242
 15.2056  20503.6  141.823
 15.4036  19591.7  139.474
 15.6016  19042.1  136.578
 15.7996  18573.9  135.164
 15.9976  17954.2  135.869
 16.1956  17200.9  130.86
 16.3936  16778.5  128.417
 16.5916  16782.5  129.069
 16.7896  16485.6  127.982
 16.9876  16433.8  129.258
 17.1856  16389.9  127.445
 17.3836  15971.2  125.709
 17.5816  15288.3  123.473
 17.7796  15133.9  122.785
 17.9776  14924.2  122.707
 18.1756  14919.9  121.399
 18.3736  14651.2  120.812
 18.5716  14494.8  119.918
 18.7696  14604.3  119.931
 18.9676  14189.2  118.025
 19.1656  14224.2  118.724
 19.3636  14112  118.468
 19.5616  13975.3  118.052
 19.7596  14116  118.06
 19.9576  14157.6  118.287
 20.1556  15145.6  122.88
 20.3536  14494.2  119.563
 20.5516  13906.9  117.583
 20.7496  13546.7  115.986
 20.9476  13297.3  114.665
 21.1456  13445.1  115.632
 21.3436  13268.6  114.817
 21.5416  13066.3  113.942
 21.7396  12990  113.454
 21.9376  12949.8  113.041
 22.1356  13113.7  113.883
 22.3336  13006  113.711
 22.5316  12819.3  112.975
 22.7296  13012.8  113.18
 22.9276  12972.6  113.688
 23.1256  13024.3  113.377
 23.3236  13117.8  114.36
 23.5216  13061.9  113.764
 23.7196  12592.3  111.646
 23.9176  12596.2  111.419
 24.1156  12498.5  111.462
 24.3136  12150.3  110.711
 24.5116  12129.6  110.137
 24.7096  11690.3  107.943
 24.9076  11463.6  106.916
 25.1056  11253.1  106.396
 25.3036  11311.9  106.171
 25.5016  11180.5  105.572
 25.6996  11308.9  105.767
 25.8976  11084.6  105.151
 26.0956  11129.3  105.378
 26.2936  11102.7  104.905
 26.4916  11193.1  105.205
 26.6896  10795.6  103.614
 26.8876  10723  103.115
 27.0856  10806.6  103.569
 27.2836  10483.1  101.968
 27.4816  10453.1  101.692
 27.6796  10328.7  101.463
 27.8776  10309.5  101.223
 28.0756  10324.9  101.587
 28.2736  10254.5  100.823
 28.4716  10099.1  100.099
 28.6696  10108.6  99.994
 28.8676  9944.89  99.5303
 29.0656  9856.49  99.0771
 29.2636  9885.3  99.0087
 29.4616  9887.56  99.196
 29.6596  9821.13  98.425
 29.8576  9568.47  97.8376
 30.0556  9723.09  98.4942
 30.2536  9741.03  98.3829
 30.4516  9604.14  97.3427
 30.6496  9869.89  98.4036
 30.8476  9614.69  97.5692
 31.0456  9567.32  97.2924
 31.2436  9644.12  96.9392
 31.4416  9348.11  95.6254
 31.6396  9298.93  95.4211
 31.8376  9284.24  94.8933
 32.0356  9439.51  96.2529
 32.2336  9263.76  94.7391
 32.4316  9188.49  94.7107
 32.6296  9193.95  94.6158
 32.8276  9252.4  94.6876
 33.0256  9014.93  93.5437
 33.2236  8976.37  93.4903
 33.4216  9050.72  93.5554
 33.6196  9017.79  93.6901
 33.8176  8978.04  93.6469
 34.0156  8816.86  92.4158
 34.2136  8847.15  92.6171
 34.4116  8782.8  92.5414
 34.6096  8842.59  92.6168
 34.8076  8553.27  91.5016
 35.0056  8748.21  92.2205
 35.2036  8718.33  92.2811
 35.4016  8721.21  92.2157
 35.5996  8597.04  91.5937
 35.7976  8424.8  90.9504
 35.9956  8514.6  91.0681
 36.1936  8549.65  91.1253
 36.3916  8402.36  90.4711
 36.5896  8357.35  91.2421
 36.7876  8389.92  90.8237
 36.9856  8271.08  90.2023
 37.1836  8371.84  89.848
 37.3816  8306.38  89.8586
 37.5796  8310.62  91.636
 37.7776  8160.75  89.1707
 37.9756  8245.77  89.5044
 38.1736  8266.55  89.8193
 38.3716  8257.53  90.0516
 38.5696  8171.47  89.9626
 38.7676  7842.18  87.6483
 38.9656  8132.94  88.889
 39.1636  7921.05  87.9895
 39.3616  8081.45  88.8044
 39.5596  7898.73  88.6328
 39.7576  7925.59  88.1631
 39.9556  8040.41  88.4254
 40.1536  8052.7  88.7018
 40.3516  8079.77  88.8628
 40.5496  8099.38  89.2388
 40.7476  8170.93  89.6337
 40.9456  8188.83  89.4775
 41.1436  8046.38  88.416
 41.3416  8006.48  88.4991
 41.5396  7929.59  87.8538
 41.7376  8074.27  88.9819
 41.9356  7902.39  87.8872
 42.1336  8055.87  88.8885
 42.3316  7912.79  88.2908
 42.5296  8038.02  88.5004
 42.7276  7984.12  88.4439
 42.9256  7838.09  87.5021
 43.1236  7811.41  87.4609
 43.3216  7956.57  88.0136
 43.5196  7774.99  87.074
 43.7176  7842.04  87.8345
 43.9156  7644.4  86.6314
 44.1136  7553.65  85.6745
 44.3116  7736.57  86.712
 44.5096  7628.72  86.4195
 44.7076  7606.16  86.2221
 44.9056  7652.61  86.3524
 45.1036  7658.36  86.0119
 45.3016  7552.82  85.9139
 45.4996  7579.52  86.0091
 45.6976  7329.96  84.7534
 45.8956  7518.06  85.6614
 46.0936  7504.65  85.5298
 46.2916  7439.41  85.1935
 46.4896  7461.37  85.3607
 46.6876  7262.33  84.9176
 46.8856  7234.73  84.0042
 47.0836  7204.92  84.0882
 47.2816  7295.27  84.4915
 47.4796  7192.27  83.9868
 47.6776  7117.29  84.4905
 47.8756  7094.79  83.5451
 48.0736  7173.33  84.4631
 48.2716  7020.75  83.409
 48.4696  7124.92  83.6114
 48.6676  7010.91  83.4942
 48.8656  7109.73  83.8039
 49.0636  7092.7  83.6596
 49.2616  6959.12  82.7931
 49.4596  6984.57  82.7647
 49.6576  6953.16  82.6495
 49.8556  6894.86  82.3296
 50.0536  6903.47  82.826
 50.2516  6854.87  82.6674
 50.4496  6841.68  82.2425
 50.6476  6946.86  82.5566
 50.8456  6875.58  82.2217
 51.0436  6741.9  81.8509
 51.2416  6787.53  81.7985
 51.4396  6532.51  80.637
 51.6376  6722.87  81.6331
 51.8356  6641.58  80.7706
 52.0336  6555.37  80.7506
 52.2316  6607.68  81.4228
 52.4296  6593.21  81.0138
 52.6276  6569.91  80.9985
 52.8256  6501.44  80.1304
 53.0236  6469.99  80.5861
 53.2216  6448.45  80.4836
 53.4196  6468.29  80.537
 53.6176  6484.19  81.1151
 53.8156  6417.62  80.3696
 54.0136  6447.48  80.718
 54.2116  6380.88  79.9683
 54.4096  6461.61  80.521
 54.6076  6331.63  80.0584
 54.8056  6289.25  79.5794
 55.0036  6379.08  80.5384
 55.2016  6338.71  79.8295
 55.3996  6345.88  79.8415
 55.5976  6269.96  79.5503
 55.7956  6341.83  79.816
 55.9936  6337.45  79.9292
 56.1916  6370.18  80.1573
 56.3896  6305.71  79.7396
 56.5876  6272.52  80.0747
 56.7856  6230.09  79.2934
 56.9836  6103.08  78.2696
 57.1816  6249.8  79.5832
 57.3796  6330.17  79.8855
 57.5776  6231.52  79.1752
 57.7756  6269.3  80.0714
 57.9736  6193.92  79.2646
 58.1716  6206.48  79.5849
 58.3696  6190.65  79.2357
 58.5676  6220.8  78.8956
 58.7656  6288.36  80.003
 58.9636  6233.11  79.6869
 59.1616  6272.18  80.0654
 59.3596  6319.24  79.6032
 59.5576  6140.56  78.5274
 59.7556  6132.24  78.8956
 59.9536  6442.24  80.7608
 60.1516  6302.71  80.7484
 60.1996  0.0000000E+00  0.0000000E+00