File: docs/examples/opeando_xrd/IS17_D/Data/IS17_D/17_Da_f00121.xye
# /beamlines/bl04/projects/cycle2025-II/20250340211-lsimonelli/DATA/IS17_D/17_Da_f00121.xye : mythproc.py merge -s 0.006 -l 0.5 -f /beamlines/bl04/inhouse/ff/FlatField/ff_20Nov2024rod8mm60s_17keV.raw -b True -c true -o xye /beamlines/bl04/projects/cycle2025-II/20250340211-lsimonelli/DATA/IS17_D/17_Da_00121.dat
# IsMon = [6742340, 6742789, 6740899]  IsPos = [-1.4999, -2.4884, -3.4989]
# Wave = 0.4962  CalPath /beamlines/bl04/projects/cycle2025-II/20250340211-lsimonelli/DATA/Align/Si_Pos1_25keV_f00001.cal
# Date = 2025-09-25_03:16:32 Dt = 4.8000  Bin = 0.0060  <imon> = 6742009 +/- 806 (Min/Max) 6740899 / 6742789
# icurr 248.6479  mocoIn 1.6972E-05  mocoOut 0.7974  i15 7.06287e+06  imon 6.74201e+06  i7 4.6667  iEMpd_timer 4.8000  iEMpd_1 3.5075E-08  iEMpd_2 8.0121E-08  iEMpd_3 1.8414E-08  iEMpd_4 4.7657E-08  iEMhp_timer 4.8000  iEMhp_1 4.8591E-06  iEMhp_2 -2.4323E-08  iEMhp_3 -2.6381E-08  iEMhp_4 -2.0325E-08
#      9776
 1.7416  69466.7  263.635
 1.9396  45865.7  214.495
 2.1376  32770  181.301
 2.3356  29401.8  171.371
 2.5336  27407.6  166.04
 2.7316  25962.8  161.709
 2.9296  24863  158.419
 3.1276  24243  155.972
 3.3256  23910.5  154.571
 3.5236  25576.5  159.669
 3.7216  23580.3  154.562
 3.9196  23052.8  152.054
 4.1176  22786.4  150.934
 4.3156  24140.6  155.53
 4.5136  26391.2  161.595
 4.7116  27481.3  166.041
 4.9096  26835.7  163.512
 5.1076  26496.8  163.049
 5.3056  26932.2  164.123
 5.5036  26684.7  163.253
 5.7016  27228.9  164.88
 5.8996  27811.9  165.848
 6.0976  28494.4  169.313
 6.2956  28977.4  170.078
 6.4936  29508.3  170.821
 6.6916  29991.4  173.216
 6.8896  30879.2  175.62
 7.0876  32081.1  179.738
 7.2856  31696.4  177.709
 7.4836  32043.9  178.017
 7.6816  33061.6  181.357
 7.8796  34486.4  185.221
 8.0776  35982.7  190.183
 8.2756  37880.4  193.731
 8.4736  38550  195.234
 8.6716  37949.7  194.35
 8.8696  37451.9  193.553
 9.0676  37164.4  192.167
 9.2656  36049.3  189.95
 9.4636  35691.6  187.41
 9.6616  34898.6  186.094
 9.8596  33479.8  181.715
 10.0576  31627.6  177.287
 10.2556  30633.4  174.915
 10.4536  29738  171.936
 10.6516  29044.1  170.113
 10.8496  28065.3  166.649
 11.0476  27406  164.704
 11.2456  26713.9  163.143
 11.4436  26976.4  163.106
 11.6416  26879  163.179
 11.8396  25107.3  157.909
 12.0376  25007  157.237
 12.2356  24380.7  155.653
 12.4336  24298  154.935
 12.6316  24053.8  154.414
 12.8296  24247.8  154.682
 13.0276  25016  157.292
 13.2256  25112.1  157.962
 13.4236  24783  156.696
 13.6216  24754  156.617
 13.8196  24702  156.222
 14.0176  24194  154.798
 14.2156  23839  152.789
 14.4136  22648.3  150.302
 14.6116  22369.9  148.582
 14.8096  21678.2  146.254
 15.0076  20525.3  146.143
 15.2056  20160  140.64
 15.4036  19236.6  138.21
 15.6016  18863.7  135.945
 15.7996  18391.6  134.518
 15.9976  17699.5  135.525
 16.1956  17151.3  130.678
 16.3936  16877  128.8
 16.5916  16713  128.808
 16.7896  16598.5  128.425
 16.9876  16510.5  129.556
 17.1856  16148.9  126.485
 17.3836  15765.8  124.875
 17.5816  15200.2  123.104
 17.7796  15163.2  122.887
 17.9776  14994.1  122.998
 18.1756  14987.2  121.676
 18.3736  14777.5  121.331
 18.5716  14593.5  120.321
 18.7696  14623.3  120.014
 18.9676  14370.2  118.776
 19.1656  14203.3  118.652
 19.3636  14284.8  119.192
 19.5616  14199  119.003
 19.7596  14242.2  118.581
 19.9576  14743.8  120.694
 20.1556  14650.8  120.862
 20.3536  13915  117.159
 20.5516  13760.7  116.956
 20.7496  13329.4  115.048
 20.9476  13183.1  114.168
 21.1456  13399.5  115.437
 21.3436  13120.8  114.179
 21.5416  13007.3  113.677
 21.7396  12847.2  112.828
 21.9376  13068.5  113.563
 22.1356  12966.4  113.237
 22.3336  12834.2  112.958
 22.5316  12790.3  112.851
 22.7296  12888.4  112.645
 22.9276  12727.7  112.621
 23.1256  13037.8  113.456
 23.3236  12696.3  112.516
 23.5216  12674.1  112.072
 23.7196  12471.9  111.119
 23.9176  12493.2  110.963
 24.1156  12352.3  110.815
 24.3136  11896.1  109.53
 24.5116  12023  109.64
 24.7096  11657.9  107.78
 24.9076  11428.9  106.741
 25.1056  11294  106.575
 25.3036  11238.9  105.825
 25.5016  11159.6  105.487
 25.6996  11217.6  105.337
 25.8976  11142.7  105.422
 26.0956  11104.5  105.267
 26.2936  11130.5  105.027
 26.4916  11039.9  104.484
 26.6896  10847.2  103.865
 26.8876  10790.3  103.438
 27.0856  10773.8  103.419
 27.2836  10586.6  102.408
 27.4816  10419.6  101.533
 27.6796  10346.2  101.55
 27.8776  10270.1  101.029
 28.0756  10303.4  101.479
 28.2736  10220.4  100.654
 28.4716  10105.4  100.133
 28.6696  10137.3  100.139
 28.8676  9983.19  99.7218
 29.0656  9896.17  99.2691
 29.2636  9887.78  99.0109
 29.4616  9826.3  98.8963
 29.6596  9822.11  98.4376
 29.8576  9781.29  98.9266
 30.0556  9694.71  98.3664
 30.2536  9798.42  98.6787
 30.4516  9816.35  98.4199
 30.6496  9655.14  97.3311
 30.8476  9551.62  97.2539
 31.0456  9362.93  96.2444
 31.2436  9384.59  95.6251
 31.4416  9362.5  95.6868
 31.6396  9246.98  95.1415
 31.8376  9349.4  95.2129
 32.0356  9162.14  94.819
 32.2336  9208.35  94.4435
 32.4316  9060.19  94.0861
 32.6296  9066.13  93.9545
 32.8276  9199.93  94.424
 33.0256  8938.53  93.1473
 33.2236  8987.29  93.5437
 33.4216  9166.39  94.1592
 33.6196  9079.81  94.0089
 33.8176  8917.66  93.3323
 34.0156  8747.16  92.04
 34.2136  8800.18  92.3685
 34.4116  8716.3  92.0791
 34.6096  8736.48  92.0601
 34.8076  8715.76  92.3502
 35.0056  8644.25  91.6761
 35.2036  8667.78  91.9946
 35.4016  8595.89  91.5533
 35.5996  8476.43  90.9458
 35.7976  8446.43  91.0686
 35.9956  8578.46  91.4161
 36.1936  8397.42  90.3144
 36.3916  8341.82  90.1871
 36.5896  8285.73  90.8507
 36.7876  8309.22  90.3925
 36.9856  8175.24  89.6877
 37.1836  8337.85  89.672
 37.3816  8383.22  90.287
 37.5796  8168.2  90.8295
 37.7776  8148.91  89.1002
 37.9756  8097.28  88.7048
 38.1736  8194.9  89.4357
 38.3716  8112.97  89.2654
 38.5696  8040.97  89.2397
 38.7676  7921.92  88.0807
 38.9656  8041.16  88.3754
 39.1636  7911.97  87.9284
 39.3616  7986.96  88.2712
 39.5596  7922.19  88.771
 39.7576  7908.23  88.0576
 39.9556  8007.64  88.2476
 40.1536  8150.7  89.2443
 40.3516  8041.4  88.6525
 40.5496  8057.56  88.9998
 40.7476  8037.09  88.9004
 40.9456  8042.01  88.6669
 41.1436  7976.41  88.0259
 41.3416  8000.5  88.5014
 41.5396  7977.41  88.1825
 41.7376  7984.88  88.4851
 41.9356  7954  88.1739
 42.1336  7927.52  88.1736
 42.3316  7911.62  88.2878
 42.5296  7889.77  87.6772
 42.7276  7911.3  88.0412
 42.9256  7873.21  87.7
 43.1236  7833.05  87.5819
 43.3216  7908.96  87.755
 43.5196  7712.61  86.7202
 43.7176  7659.59  86.8133
 43.9156  7764.69  87.3207
 44.1136  7681.21  86.4007
 44.3116  7720.03  86.6358
 44.5096  7576.26  86.1318
 44.7076  7638.78  86.4139
 44.9056  7582.44  85.9643
 45.1036  7503.45  85.1428
 45.3016  7492.26  85.5795
 45.4996  7396  84.9666
 45.6976  7269.74  84.4153
 45.8956  7455.82  85.2965
 46.0936  7457.07  85.3057
 46.2916  7301.19  84.3883
 46.4896  7378.87  84.8675
 46.6876  7334.97  85.3267
 46.8856  7235.34  84.0024
 47.0836  7267.62  84.45
 47.2816  7114.38  83.4333
 47.4796  7214.34  84.1314
 47.6776  7048.65  84.0906
 47.8756  7107.84  83.6223
 48.0736  7201.83  84.631
 48.2716  7004.9  83.2835
 48.4696  7089.7  83.3776
 48.6676  7085.38  83.9381
 48.8656  7073.97  83.5992
 49.0636  7021.99  83.2397
 49.2616  6846.18  82.2283
 49.4596  6848.36  81.7968
 49.6576  6857.03  82.0796
 49.8556  6898.94  82.3545
 50.0536  6892.69  82.7535
 50.2516  6942.47  83.1931
 50.4496  6846.73  82.2724
 50.6476  6750.64  81.3818
 50.8456  6848.95  82.056
 51.0436  6658.97  81.3523
 51.2416  6646.31  80.9543
 51.4396  6536.62  80.671
 51.6376  6632.91  81.0878
 51.8356  6600.1  80.5171
 52.0336  6573.16  80.8652
 52.2316  6433.51  80.3434
 52.4296  6573.51  80.9113
 52.6276  6534.72  80.7886
 52.8256  6530.98  80.325
 53.0236  6419.9  80.2633
 53.2216  6403.71  80.1964
 53.4196  6289.1  79.396
 53.6176  6369.14  80.3817
 53.8156  6506.25  80.9011
 54.0136  6396.6  80.4025
 54.2116  6318.67  79.5752
 54.4096  6379.88  80.0087
 54.6076  6294.94  79.8264
 54.8056  6242.78  79.2829
 55.0036  6190.13  79.3404
 55.2016  6277.52  79.4953
 55.3996  6264.09  79.3286
 55.5976  6267.54  79.5331
 55.7956  6290.51  79.497
 55.9936  6251.87  79.3847
 56.1916  6175.02  78.9181
 56.3896  6246.78  79.366
 56.5876  6255.08  79.9714
 56.7856  6099.17  78.4547
 56.9836  6161.76  78.6373
 57.1816  6294.91  79.7697
 57.3796  6285.91  79.6082
 57.5776  6192.04  78.9381
 57.7756  6084.86  78.8863
 57.9736  6176.6  79.1541
 58.1716  6249.82  79.8611
 58.3696  6090.99  78.5892
 58.5676  6159.99  78.5089
 58.7656  6083.14  78.6943
 58.9636  6284.41  80.021
 59.1616  6235.76  79.8296
 59.3596  6322.8  79.6461
 59.5576  6214.47  79.0193
 59.7556  6276.31  79.838
 59.9536  6277.74  79.7439
 60.1516  6285.73  80.6607
 60.1996  6268.82  83.7575