File: docs/examples/opeando_xrd/IS17_D/Data/IS17_D/17_Da_f00023.xye
# /beamlines/bl04/projects/cycle2025-II/20250340211-lsimonelli/DATA/IS17_D/17_Da_f00023.xye : mythproc.py merge -s 0.006 -l 0.5 -f /beamlines/bl04/inhouse/ff/FlatField/ff_20Nov2024rod8mm60s_17keV.raw -b True -c true -o xye /beamlines/bl04/projects/cycle2025-II/20250340211-lsimonelli/DATA/IS17_D/17_Da_00023.dat
# IsMon = [6790293, 6787654, 6789164]  IsPos = [-1.4999, -2.4885, -3.4986]
# Wave = 0.4962  CalPath /beamlines/bl04/projects/cycle2025-II/20250340211-lsimonelli/DATA/Align/Si_Pos1_25keV_f00001.cal
# Date = 2025-09-23_23:58:12 Dt = 4.8000  Bin = 0.0060  <imon> = 6789037 +/- 1081 (Min/Max) 6787654 / 6790293
# icurr 253.0099  mocoIn 1.7265E-05  mocoOut 0.8098  i15 7.10422e+06  imon 6.78904e+06  i7 7.6667  iEMpd_timer 4.8000  iEMpd_1 3.5482E-08  iEMpd_2 7.6999E-08  iEMpd_3 1.6232E-08  iEMpd_4 4.8233E-08  iEMhp_timer 4.8000  iEMhp_1 4.9434E-06  iEMhp_2 -2.4058E-08  iEMhp_3 -2.4199E-08  iEMhp_4 -2.1303E-08
#      9776
 1.7416  70022.9  264.67
 1.9396  44761.8  211.886
 2.1376  31414.8  177.502
 2.3356  27780.3  166.567
 2.5336  27601.6  166.616
 2.7316  24879.2  158.313
 2.9296  23628.5  154.443
 3.1276  23232.7  152.694
 3.3256  22947.8  151.44
 3.5236  24867.8  157.594
 3.7216  22520.6  151.05
 3.9196  22080.7  148.817
 4.1176  22016.5  148.364
 4.3156  23329.2  152.891
 4.5136  26007.1  160.421
 4.7116  26899.5  164.272
 4.9096  26278.5  161.808
 5.1076  25754.1  160.749
 5.3056  26572.6  162.912
 5.5036  25864.5  160.746
 5.7016  26379  162.289
 5.8996  27084.2  163.664
 6.0976  27683.7  166.882
 6.2956  28165.5  167.682
 6.4936  28765.5  168.657
 6.6916  29148.3  170.761
 6.8896  30124.4  173.453
 7.0876  30848.4  176.25
 7.2856  30773.5  175.105
 7.4836  31138.4  175.484
 7.6816  31738.6  177.692
 7.8796  33397.4  182.281
 8.0776  35996.8  190.229
 8.2756  36711  190.709
 8.4736  37278  191.993
 8.6716  36453.9  190.494
 8.8696  36439.8  190.911
 9.0676  35859.8  188.747
 9.2656  34282.8  185.225
 9.4636  33766.9  182.266
 9.6616  32953  180.816
 9.8596  31678.3  176.767
 10.0576  30078.2  172.906
 10.2556  29244.8  170.912
 10.4536  30132  173.084
 10.6516  30544  174.459
 10.8496  27091.7  163.726
 11.0476  26433.3  161.713
 11.2456  27147.3  164.472
 11.4436  25872.6  159.73
 11.6416  25452.9  158.789
 11.8396  23835.5  153.855
 12.0376  23916.8  153.751
 12.2356  24250.7  155.265
 12.4336  23788.3  153.297
 12.6316  23071  151.228
 12.8296  23556.7  152.462
 13.0276  24067.4  154.284
 13.2256  23778  153.71
 13.4236  23664.6  153.117
 13.6216  23777.6  153.494
 13.8196  24089  154.264
 14.0176  23302.9  152.016
 14.2156  22793.7  149.402
 14.4136  21782.4  147.402
 14.6116  21260.8  144.851
 14.8096  20950  143.775
 15.0076  19794.8  143.516
 15.2056  19389.7  137.931
 15.4036  18532.7  135.677
 15.6016  18208.1  133.567
 15.7996  17790.9  132.3
 15.9976  16982.1  132.155
 16.1956  16434.3  127.909
 16.3936  16154  126.002
 16.5916  16127  126.523
 16.7896  16015.5  126.143
 16.9876  15735.9  126.486
 17.1856  15535.2  124.073
 17.3836  15023.4  121.903
 17.5816  14720.6  121.153
 17.7796  14497.8  120.162
 17.9776  14646.6  121.563
 18.1756  14986.2  121.678
 18.3736  15034.7  122.383
 18.5716  14238.8  118.852
 18.7696  14293.7  118.654
 18.9676  13737.7  116.128
 19.1656  13813  117.003
 19.3636  13589.7  116.257
 19.5616  13644.2  116.654
 19.7596  13685.7  116.243
 19.9576  14072.6  117.932
 20.1556  13712.7  116.931
 20.3536  13230.2  114.229
 20.5516  13203  114.565
 20.7496  12906.5  113.213
 20.9476  12930.2  113.062
 21.1456  13180.8  114.49
 21.3436  12793.6  112.748
 21.5416  12652.2  112.123
 21.7396  12518.3  111.374
 21.9376  12341.1  110.352
 22.1356  12656.2  111.766
 22.3336  12578.2  111.812
 22.5316  12456.6  111.373
 22.7296  12496.8  110.922
 22.9276  12243.2  110.455
 23.1256  12674.4  111.859
 23.3236  12280  110.646
 23.5216  12198.4  109.939
 23.7196  12149.1  109.66
 23.9176  12083.4  109.116
 24.1156  11929.7  108.895
 24.3136  11689  108.578
 24.5116  11659.1  107.973
 24.7096  11329.2  106.255
 24.9076  11181.4  105.58
 25.1056  11014.5  104.987
 25.3036  10949.5  104.458
 25.5016  10896.3  104.234
 25.6996  10749.3  103.116
 25.8976  10864.6  104.096
 26.0956  10842.8  104.019
 26.2936  10773.7  103.334
 26.4916  10809  103.386
 26.6896  10488.9  102.132
 26.8876  10408.1  101.594
 27.0856  10414.1  101.635
 27.2836  10276.8  101.059
 27.4816  10134.7  100.126
 27.6796  10043  100.051
 27.8776  10103.2  100.205
 28.0756  10091.3  100.435
 28.2736  10059  99.8564
 28.4716  9721.98  98.2187
 28.6696  9699.86  97.9565
 28.8676  9642.42  98.0029
 29.0656  9477.94  97.1467
 29.2636  9519.4  97.0639
 29.4616  9263.86  96.0253
 29.6596  9456.27  96.5901
 29.8576  9399.15  96.978
 30.0556  9440.23  97.0606
 30.2536  9370.63  96.5019
 30.4516  9398.23  96.2934
 30.6496  9309.78  95.5681
 30.8476  9303.48  95.9756
 31.0456  9067.09  94.7067
 31.2436  9169.28  94.5125
 31.4416  8978.9  93.7105
 31.6396  9150.8  94.6498
 31.8376  9068.42  93.7745
 32.0356  9013.43  94.0477
 32.2336  8860.42  92.64
 32.4316  8860.15  93.0482
 32.6296  8755.19  92.2659
 32.8276  8786.35  92.2692
 33.0256  8787.17  92.3523
 33.2236  8694.6  92.0024
 33.4216  8837.72  92.4599
 33.6196  8762.5  92.3561
 33.8176  8693.25  92.1472
 34.0156  8538.18  90.9325
 34.2136  8547.42  91.0281
 34.4116  8428.58  90.5497
 34.6096  8460.86  90.5972
 34.8076  8400.67  90.6897
 35.0056  8462.45  90.7057
 35.2036  8364.53  90.3845
 35.4016  8281.47  89.8641
 35.5996  8190.56  89.4012
 35.7976  8203.32  89.7433
 35.9956  8254.77  89.6705
 36.1936  8139.52  88.9115
 36.3916  8164.74  89.2231
 36.5896  8159.07  90.6202
 36.7876  8104.24  89.2738
 36.9856  7981.82  88.626
 37.1836  8128.34  88.541
 37.3816  8207.01  89.3306
 37.5796  7952.43  89.6369
 37.7776  7930.84  87.8975
 37.9756  7872.73  87.4557
 38.1736  8069.12  88.7394
 38.3716  7941.97  88.3103
 38.5696  7932.66  88.6344
 38.7676  7744.18  87.0898
 38.9656  7735.13  86.6812
 39.1636  7846.57  87.5389
 39.3616  7795.72  87.2103
 39.5596  7596.07  86.9276
 39.7576  7750.19  87.1755
 39.9556  7779.39  86.9819
 40.1536  7812.91  87.3655
 40.3516  7839.1  87.6142
 40.5496  7846.85  87.6147
 40.7476  7874.84  87.9978
 40.9456  7811.26  87.3899
 41.1436  7803.06  87.0677
 41.3416  7828.66  87.5459
 41.5396  7789.64  87.1344
 41.7376  7712.58  86.9601
 41.9356  7680.27  86.6436
 42.1336  7777.47  87.3327
 42.3316  7672.8  86.9451
 42.5296  7816.57  87.2711
 42.7276  7763.77  87.2158
 42.9256  7718.54  86.8227
 43.1236  7578.47  86.1471
 43.3216  7581.63  86.0217
 43.5196  7512.25  85.5846
 43.7176  7517.01  86.0014
 43.9156  7459.6  85.5922
 44.1136  7495.96  85.3548
 44.3116  7394.72  84.7877
 44.5096  7347.86  84.8199
 44.7076  7362  84.8381
 44.9056  7380.93  84.8046
 45.1036  7318.95  84.0784
 45.3016  7282  84.3641
 45.4996  7211.96  83.8961
 45.6976  7075.65  83.2737
 45.8956  7192.48  83.7798
 46.0936  7317.84  84.505
 46.2916  7047.13  82.9112
 46.4896  7146.59  83.53
 46.6876  7078.25  83.8264
 46.8856  7045.27  83.0151
 47.0836  7009.11  82.9328
 47.2816  6919.82  82.2874
 47.4796  6971.59  82.7018
 47.6776  6904.99  83.2132
 47.8756  6906.12  82.4306
 48.0736  6960.21  83.1782
 48.2716  6785.98  81.9734
 48.4696  6882.34  82.1431
 48.6676  6906.71  82.8748
 48.8656  6803.38  81.9792
 49.0636  6858.57  82.2675
 49.2616  6700.17  81.3489
 49.4596  6618.5  80.4254
 49.6576  6642.21  80.792
 49.8556  6643.7  80.8138
 50.0536  6623.39  81.123
 50.2516  6709.99  81.7612
 50.4496  6666.72  81.187
 50.6476  6619.44  80.5815
 50.8456  6625.37  80.7052
 51.0436  6422.52  79.8977
 51.2416  6522.96  80.1999
 51.4396  6269.91  79.0135
 51.6376  6397.84  79.6426
 51.8356  6435.25  79.517
 52.0336  6263.37  78.9304
 52.2316  6402.6  80.1479
 52.4296  6418.84  79.9462
 52.6276  6288.39  79.2413
 52.8256  6343.02  79.1507
 53.0236  6219.67  79.0055
 53.2216  6143.46  78.5568
 53.4196  6069.96  78.0103
 53.6176  6153.23  79.01
 53.8156  6123.25  78.487
 54.0136  6193.36  79.1086
 54.2116  6098.72  78.1774
 54.4096  6106.56  78.2785
 54.6076  6063.31  78.3429
 54.8056  6015.81  77.8302
 55.0036  6040.99  78.377
 55.2016  6102.96  78.3274
 55.3996  6096.41  78.2565
 55.5976  6040.81  78.0867
 55.7956  5981.08  77.5174
 55.9936  6000.86  77.7717
 56.1916  6104.29  78.4586
 56.3896  6063.93  78.1971
 56.5876  5900.74  77.6743
 56.7856  5942.81  77.4403
 56.9836  5931.09  77.1489
 57.1816  5984.08  77.8708
 57.3796  5999.11  77.7449
 57.5776  5917.3  77.1684
 57.7756  5980.18  78.2081
 57.9736  6016.55  78.1211
 58.1716  5989.27  78.1821
 58.3696  6006.11  78.0528
 58.5676  5991.33  77.4413
 58.7656  6101.92  78.8133
 58.9636  6027.46  78.3711
 59.1616  5986.56  78.2285
 59.3596  5982.06  77.4644
 59.5576  6160.58  78.6687
 59.7556  5880.26  77.2708
 59.9536  6206.49  79.2828
 60.1516  5969.57  78.5988
 60.1996  0.0000000E+00  0.0000000E+00