File: docs/examples/opeando_xrd/IS17_D/Data/IS17_D/17_Da_f00043.xye
# /beamlines/bl04/projects/cycle2025-II/20250340211-lsimonelli/DATA/IS17_D/17_Da_f00043.xye : mythproc.py merge -s 0.006 -l 0.5 -f /beamlines/bl04/inhouse/ff/FlatField/ff_20Nov2024rod8mm60s_17keV.raw -b True -c true -o xye /beamlines/bl04/projects/cycle2025-II/20250340211-lsimonelli/DATA/IS17_D/17_Da_00043.dat
# IsMon = [6760097, 6759195, 6758277]  IsPos = [-1.4999, -2.4885, -3.4986]
# Wave = 0.4962  CalPath /beamlines/bl04/projects/cycle2025-II/20250340211-lsimonelli/DATA/Align/Si_Pos1_25keV_f00001.cal
# Date = 2025-09-24_05:31:20 Dt = 4.8000  Bin = 0.0060  <imon> = 6759190 +/- 743 (Min/Max) 6758277 / 6760097
# icurr 249.8630  mocoIn 1.7049E-05  mocoOut 0.7996  i15 7.07432e+06  imon 6.75919e+06  i7 5.3333  iEMpd_timer 4.8000  iEMpd_1 3.3942E-08  iEMpd_2 7.7572E-08  iEMpd_3 1.5840E-08  iEMpd_4 4.8893E-08  iEMhp_timer 4.8000  iEMhp_1 4.8824E-06  iEMhp_2 -2.5763E-08  iEMhp_3 -2.3818E-08  iEMhp_4 -2.0732E-08
#      9776
 1.7416  70259.2  265.123
 1.9396  46923.4  216.949
 2.1376  33489.8  183.273
 2.3356  30012.8  173.136
 2.5336  28302.8  168.723
 2.7316  26493.2  163.356
 2.9296  25678.7  160.998
 3.1276  24667  157.337
 3.3256  24288.5  155.792
 3.5236  26284.8  162.02
 3.7216  23650.1  154.792
 3.9196  23305.8  152.877
 4.1176  22985.5  151.597
 4.3156  24241.4  155.85
 4.5136  26538.4  162.046
 4.7116  27467  165.998
 4.9096  26908.8  163.734
 5.1076  26635.2  163.475
 5.3056  27033.2  164.315
 5.5036  26493.5  162.69
 5.7016  26840  163.7
 5.8996  27270.3  164.225
 6.0976  28192.9  168.409
 6.2956  28879.5  169.794
 6.4936  29519.4  170.855
 6.6916  29602.9  172.09
 6.8896  30846.2  175.522
 7.0876  31743.5  178.788
 7.2856  31565.6  177.344
 7.4836  31891.7  177.589
 7.6816  32930.1  180.997
 7.8796  34039.2  184.022
 8.0776  35888.9  189.942
 8.2756  37300.1  192.248
 8.4736  37830.2  193.415
 8.6716  37248.3  192.547
 8.8696  37058.7  192.53
 9.0676  36321.4  189.962
 9.2656  35308.6  187.985
 9.4636  34678.9  184.721
 9.6616  33796.3  183.128
 9.8596  32576.5  179.25
 10.0576  30885.8  175.203
 10.2556  29731.7  172.325
 10.4536  28477.6  168.261
 10.6516  27851.7  166.585
 10.8496  27048.2  163.599
 11.0476  26150.5  160.839
 11.2456  25572.5  159.622
 11.4436  25409.1  158.293
 11.6416  26963.6  163.431
 11.8396  24567.9  156.202
 12.0376  24461.2  155.489
 12.2356  23929.7  154.238
 12.4336  23583.5  152.637
 12.6316  23594.6  152.938
 12.8296  23704.4  152.938
 13.0276  24447.6  155.495
 13.2256  24763.7  156.861
 13.4236  24326.8  155.246
 13.6216  24185.6  154.806
 13.8196  24401  155.267
 14.0176  23988.1  154.236
 14.2156  23467.5  151.591
 14.4136  22344.8  149.293
 14.6116  22006.1  147.369
 14.8096  21386.3  145.268
 15.0076  20141.9  144.761
 15.2056  20010.1  140.12
 15.4036  18868.5  136.896
 15.6016  18757.4  135.567
 15.7996  18058.6  133.292
 15.9976  17309.8  133.437
 16.1956  16972.8  129.994
 16.3936  16476.6  127.26
 16.5916  16394.7  127.575
 16.7896  16273  127.157
 16.9876  16073.2  127.833
 17.1856  15941.4  125.673
 17.3836  15440.2  123.577
 17.5816  14928.5  121.998
 17.7796  14635.2  120.722
 17.9776  14329.9  120.243
 18.1756  14495  119.656
 18.3736  14155.6  118.752
 18.5716  14012.8  117.905
 18.7696  14110.9  117.89
 18.9676  13895.9  116.793
 19.1656  13789  116.911
 19.3636  13730.9  116.859
 19.5616  13696.6  116.876
 19.7596  13611.1  115.918
 19.9576  13896.2  117.188
 20.1556  14585.7  120.594
 20.3536  14212.4  118.402
 20.5516  13520.2  115.931
 20.7496  13197.1  114.478
 20.9476  12940.4  113.111
 21.1456  13089.9  114.097
 21.3436  12926.8  113.332
 21.5416  12788.4  112.719
 21.7396  12688.4  112.122
 21.9376  12604.3  111.521
 22.1356  12635.3  111.672
 22.3336  12626.5  112.027
 22.5316  12551.6  111.799
 22.7296  12534.2  111.086
 22.9276  12487.3  111.554
 23.1256  12677.9  111.868
 23.3236  12578.9  111.983
 23.5216  12385.6  110.783
 23.7196  12381.2  110.714
 23.9176  12421.7  110.643
 24.1156  12139.5  109.854
 24.3136  11711.8  108.682
 24.5116  11721.7  108.258
 24.7096  11495.3  107.026
 24.9076  11226.6  105.787
 25.1056  11177.3  105.747
 25.3036  11001.9  104.703
 25.5016  11040.7  104.925
 25.6996  10919.2  103.93
 25.8976  10766.9  103.631
 26.0956  10838.8  104.001
 26.2936  10790.7  103.418
 26.4916  10943.4  104.03
 26.6896  10663.4  102.982
 26.8876  10673.6  102.881
 27.0856  10537.1  102.236
 27.2836  10415.7  101.738
 27.4816  10289.5  100.898
 27.6796  10105  100.359
 27.8776  10038.2  99.883
 28.0756  10053  100.245
 28.2736  10117.2  100.142
 28.4716  9783.87  98.5263
 28.6696  9894.12  98.9329
 28.8676  9633.8  97.9654
 29.0656  9553.5  97.5324
 29.2636  9543.49  97.192
 29.4616  9406.72  96.7639
 29.6596  9521.43  96.9211
 29.8576  9520.17  97.5992
 30.0556  9539.06  97.5742
 30.2536  9532.39  97.3327
 30.4516  9382.08  96.2129
 30.6496  9329.98  95.6751
 30.8476  9313.34  96.0312
 31.0456  9324.48  96.0472
 31.2436  9279.89  95.0849
 31.4416  9053.58  94.0917
 31.6396  9226.15  95.0351
 31.8376  9086.2  93.86
 32.0356  9135.17  94.6808
 32.2336  8921.71  92.9571
 32.4316  8934.43  93.434
 32.6296  8945.23  93.2606
 32.8276  9021.43  93.4973
 33.0256  8857.85  92.728
 33.2236  8716.72  92.1247
 33.4216  8794.39  92.2313
 33.6196  8826.59  92.6907
 33.8176  8790.04  92.6605
 34.0156  8652.8  91.5541
 34.2136  8706.36  91.8725
 34.4116  8615.42  91.5447
 34.6096  8582.62  91.2511
 34.8076  8498.44  91.2051
 35.0056  8555.74  91.2055
 35.2036  8520.68  91.2196
 35.4016  8534.66  91.2239
 35.5996  8407.48  90.5785
 35.7976  8293.93  90.2324
 35.9956  8350.7  90.186
 36.1936  8235.69  89.4372
 36.3916  8281.65  89.865
 36.5896  8199.83  90.8448
 36.7876  8251.89  90.0808
 36.9856  8065.84  89.0896
 37.1836  8245.38  89.1752
 37.3816  8220.2  89.4043
 37.5796  7980.8  89.7947
 37.7776  7956.47  88.0386
 37.9756  7952.6  87.9037
 38.1736  8036.11  88.5606
 38.3716  7917.52  88.1811
 38.5696  7931.68  88.6362
 38.7676  7765.69  87.209
 38.9656  7830.81  87.2121
 39.1636  7900.16  87.8325
 39.3616  7799.88  87.2356
 39.5596  7731.89  87.6954
 39.7576  7749.07  87.1706
 39.9556  7858.7  87.4306
 40.1536  7924.25  87.9934
 40.3516  7928.4  88.1101
 40.5496  7906.62  87.9602
 40.7476  7952.24  88.4264
 40.9456  8005.51  88.4708
 41.1436  8000.45  88.1596
 41.3416  7889.38  87.8839
 41.5396  7778.7  87.0734
 41.7376  7826.38  87.6013
 41.9356  7790.04  87.2626
 42.1336  7872.63  87.8609
 42.3316  7795.32  87.6378
 42.5296  7783.19  87.0842
 42.7276  7841.81  87.6523
 42.9256  7723.35  86.8528
 43.1236  7696.19  86.8136
 43.3216  7762.08  87.0358
 43.5196  7686.65  86.5749
 43.7176  7649.44  86.7564
 43.9156  7414.76  85.3292
 44.1136  7547.78  85.6488
 44.3116  7534.75  85.5816
 44.5096  7616.34  86.3592
 44.7076  7451.35  85.3507
 44.9056  7482.65  85.3928
 45.1036  7482.43  85.0206
 45.3016  7346.03  84.7379
 45.4996  7217.36  83.9282
 45.6976  7235.31  84.2114
 45.8956  7308.03  84.4463
 46.0936  7324.91  84.5464
 46.2916  7422.99  85.0928
 46.4896  7365.23  84.7959
 46.6876  7227.82  84.6943
 46.8856  7146.81  83.6094
 47.0836  7101.91  83.482
 47.2816  7057.46  83.0975
 47.4796  7129.91  83.6284
 47.6776  6957.05  83.539
 47.8756  7004.04  83.0117
 48.0736  7045.42  83.687
 48.2716  6851.54  82.3677
 48.4696  7073.25  83.2804
 48.6676  6924.08  82.9796
 48.8656  6864.39  82.3542
 49.0636  6993.77  83.0539
 49.2616  6758.34  81.7009
 49.4596  6853.74  81.8413
 49.6576  6852.99  82.0626
 49.8556  6807.81  81.8086
 50.0536  6726.7  81.7578
 50.2516  6745.91  81.9856
 50.4496  6687.04  81.3092
 50.6476  6769.21  81.4892
 50.8456  6728.53  81.332
 51.0436  6541.57  80.6337
 51.2416  6548.35  80.358
 51.4396  6489.35  80.3856
 51.6376  6478.16  80.1414
 51.8356  6510.87  79.9734
 52.0336  6361.99  79.5518
 52.2316  6428.45  80.3144
 52.4296  6472.81  80.2795
 52.6276  6498.25  80.5619
 52.8256  6461.96  79.889
 53.0236  6296.54  79.4917
 53.2216  6256.11  79.2659
 53.4196  6237.86  79.0768
 53.6176  6267.7  79.7394
 53.8156  6242.3  79.2556
 54.0136  6217.01  79.2726
 54.2116  6292.48  79.4092
 54.4096  6236.75  79.107
 54.6076  6141.61  78.8505
 54.8056  6097.08  78.3517
 55.0036  6136.1  78.9934
 55.2016  6132.09  78.5129
 55.3996  6224.7  79.0783
 55.5976  6095.27  78.4355
 55.7956  6102.76  78.2983
 55.9936  6083.39  78.3052
 56.1916  6173.94  78.9085
 56.3896  6176.5  78.9204
 56.5876  6012.87  78.4101
 56.7856  6053.9  78.1699
 56.9836  6024.38  77.7578
 57.1816  6092.14  78.5677
 57.3796  6139.37  78.6475
 57.5776  6141.26  78.6178
 57.7756  6057.46  78.7121
 57.9736  6037.15  78.2531
 58.1716  6050.09  78.5753
 58.3696  6038.23  78.257
 58.5676  6015.71  77.5946
 58.7656  6049.89  78.4812
 58.9636  6196.91  79.46
 59.1616  6077.17  78.8114
 59.3596  6217.67  78.9802
 59.5576  6145.59  78.5791
 59.7556  6103.76  78.7317
 59.9536  6236.08  79.4777
 60.1516  6049.74  79.1308
 60.1996  0.0000000E+00  0.0000000E+00