File: docs/examples/opeando_xrd/IS17_D/Data/IS17_D/17_Db_f00149.xye
# /beamlines/bl04/projects/cycle2025-II/20250340211-lsimonelli/DATA/IS17_D/17_Db_f00149.xye : mythproc.py merge -s 0.006 -l 0.5 -f /beamlines/bl04/inhouse/ff/FlatField/ff_20Nov2024rod8mm60s_17keV.raw -b True -c true -o xye /beamlines/bl04/projects/cycle2025-II/20250340211-lsimonelli/DATA/IS17_D/17_Db_00149.dat
# IsMon = [6738239, 6742050, 6742588]  IsPos = [-1.4999, -2.4883, -3.4988]
# Wave = 0.4962  CalPath /beamlines/bl04/projects/cycle2025-II/20250340211-lsimonelli/DATA/Align/Si_Pos1_25keV_f00001.cal
# Date = 2025-09-25_11:13:23 Dt = 4.8000  Bin = 0.0060  <imon> = 6740959 +/- 1936 (Min/Max) 6738239 / 6742588
# icurr 249.4715  mocoIn 1.7018E-05  mocoOut 0.7989  i15 7.06541e+06  imon 6.74096e+06  i7 3.3333  iEMpd_timer 4.8000  iEMpd_1 3.4350E-08  iEMpd_2 7.7956E-08  iEMpd_3 1.7582E-08  iEMpd_4 4.7917E-08  iEMhp_timer 4.8000  iEMhp_1 4.8727E-06  iEMhp_2 -2.5095E-08  iEMhp_3 -2.3352E-08  iEMhp_4 -2.0945E-08
#      9776
 1.7416  70183.1  265.05
 1.9396  48916.5  221.563
 2.1376  35760.1  189.436
 2.3356  32009.9  178.851
 2.5336  29506.4  172.319
 2.7316  27303.8  165.859
 2.9296  26050  162.16
 3.1276  25560.7  160.173
 3.3256  25073.8  158.317
 3.5236  26302.4  161.914
 3.7216  24201.3  156.569
 3.9196  23645.1  153.964
 4.1176  23654.7  153.79
 4.3156  24556  156.857
 4.5136  27052.1  163.6
 4.7116  28079.6  167.83
 4.9096  27114  164.348
 5.1076  27037  164.706
 5.3056  27176.9  164.832
 5.5036  27083.6  164.473
 5.7016  27469.3  165.604
 5.8996  28263.3  167.202
 6.0976  29078.8  171.034
 6.2956  28828.3  169.627
 6.4936  29684.8  171.317
 6.6916  30026.6  173.301
 6.8896  30461.5  174.384
 7.0876  31602.3  178.386
 7.2856  31513  177.175
 7.4836  31875.8  177.619
 7.6816  32673.4  180.263
 7.8796  33696.4  183.064
 8.0776  34871.6  187.205
 8.2756  36702.8  190.672
 8.4736  37589.1  192.771
 8.6716  36859.1  191.515
 8.8696  37280.8  193.137
 9.0676  36762.4  191.107
 9.2656  35640.3  188.872
 9.4636  34822.7  185.136
 9.6616  33987.9  183.636
 9.8596  33410.9  181.526
 10.0576  31245.2  176.2
 10.2556  30439.9  174.381
 10.4536  29701  171.844
 10.6516  29179.8  170.543
 10.8496  27922.9  166.232
 11.0476  27267.9  164.287
 11.2456  26384.5  162.135
 11.4436  27036.7  163.286
 11.6416  26239.7  161.197
 11.8396  25019.1  157.622
 12.0376  24473.7  155.529
 12.2356  23892.5  154.083
 12.4336  23998.6  153.98
 12.6316  24131.7  154.672
 12.8296  24076.6  154.093
 13.0276  24264.2  154.906
 13.2256  24444.2  155.848
 13.4236  24322  155.234
 13.6216  24872.9  156.986
 13.8196  26642.9  161.925
 14.0176  23768.8  153.522
 14.2156  23459  151.555
 14.4136  22206.9  148.832
 14.6116  21942.6  147.134
 14.8096  21196.9  144.6
 15.0076  20229.4  145.156
 15.2056  19437.4  138.073
 15.4036  18292.1  134.768
 15.6016  18107  133.179
 15.7996  17524.1  131.285
 15.9976  17465.2  133.981
 16.1956  16830.5  129.43
 16.3936  16785.3  128.427
 16.5916  16439.8  127.749
 16.7896  16488.4  127.994
 16.9876  16383.5  129.021
 17.1856  15874.3  125.408
 17.3836  15892.2  125.398
 17.5816  15330.6  123.641
 17.7796  15315.3  123.509
 17.9776  14855.3  122.404
 18.1756  14934.9  121.481
 18.3736  14884.3  121.758
 18.5716  14595  120.325
 18.7696  14447.6  119.28
 18.9676  14458.1  119.131
 19.1656  14007.3  117.834
 19.3636  14095.9  118.402
 19.5616  13966.9  118.029
 19.7596  14195  118.393
 19.9576  14637.7  120.262
 20.1556  14064  118.402
 20.3536  13511.8  115.446
 20.5516  13373.3  115.303
 20.7496  13116.9  114.126
 20.9476  13120.5  113.9
 21.1456  13059.9  113.959
 21.3436  12919  113.293
 21.5416  12865.5  113.073
 21.7396  12723.7  112.289
 21.9376  12551.5  111.299
 22.1356  12699.6  112.074
 22.3336  12453.8  111.263
 22.5316  12491.2  111.52
 22.7296  12432.3  110.627
 22.9276  12234.6  110.403
 23.1256  12464.4  110.916
 23.3236  12734.9  112.703
 23.5216  12538.4  111.465
 23.7196  12401.8  110.809
 23.9176  12596.8  111.433
 24.1156  12340  110.741
 24.3136  12004.8  110.038
 24.5116  12062  109.816
 24.7096  11665  107.816
 24.9076  11587.6  107.491
 25.1056  11105.7  105.685
 25.3036  11050.2  104.929
 25.5016  11129.8  105.343
 25.6996  11074.1  104.663
 25.8976  11048.9  104.968
 26.0956  10884.8  104.207
 26.2936  10924.5  104.055
 26.4916  11206.6  105.25
 26.6896  10831.8  103.775
 26.8876  10678.3  102.905
 27.0856  10658.7  102.863
 27.2836  10392.3  101.518
 27.4816  10217.9  100.54
 27.6796  10273.5  101.176
 27.8776  10393.7  101.63
 28.0756  10076.4  100.352
 28.2736  10090.3  100.009
 28.4716  9869.99  98.9567
 28.6696  9858.82  98.7484
 28.8676  9801.49  98.8122
 29.0656  9619.92  97.8796
 29.2636  9706.79  98.1007
 29.4616  9379.96  96.6126
 29.6596  9440.39  96.4947
 29.8576  9345.67  96.687
 30.0556  9285.54  96.2545
 30.2536  9443.08  96.8618
 30.4516  9442.79  96.5047
 30.6496  9585.77  96.9805
 30.8476  9404.44  96.4895
 31.0456  9445.64  96.6786
 31.2436  9462.82  96.0234
 31.4416  9396.52  95.8585
 31.6396  9486.89  96.3716
 31.8376  9472.47  95.82
 32.0356  9296.48  95.4809
 32.2336  9363.77  95.2476
 32.4316  8876.9  93.0757
 32.6296  8890.3  93.0314
 32.8276  9088.2  93.854
 33.0256  8861.21  92.7252
 33.2236  9075.52  93.9982
 33.4216  8875.84  92.647
 33.6196  8853.31  92.8174
 33.8176  8811.89  92.7621
 34.0156  8748.95  92.0608
 34.2136  8809.69  92.4061
 34.4116  8560.53  91.3639
 34.6096  8676.61  91.7528
 34.8076  8503.86  91.2492
 35.0056  8494.45  90.8654
 35.2036  8779.18  92.6084
 35.4016  8441.8  90.7153
 35.5996  8384.91  90.4551
 35.7976  8397.06  90.7899
 35.9956  8624.43  91.6523
 36.1936  8408.52  90.351
 36.3916  8306.82  89.9564
 36.5896  8257.11  90.7142
 36.7876  8119.32  89.3377
 36.9856  7939.43  88.373
 37.1836  8060.93  88.1605
 37.3816  8108.94  88.7849
 37.5796  8020.36  90.0202
 37.7776  8105.23  88.873
 37.9756  8103.46  88.7463
 38.1736  8094  88.8844
 38.3716  7991.48  88.5893
 38.5696  7905.12  88.4716
 38.7676  7853.13  87.7057
 38.9656  7903.08  87.6147
 39.1636  7925.61  88.0126
 39.3616  7924.63  87.932
 39.5596  7764.37  87.8706
 39.7576  7880.67  87.9125
 39.9556  7925.93  87.8059
 40.1536  7927.48  88.0077
 40.3516  7990.96  88.3789
 40.5496  7897.27  88.1082
 40.7476  8046.21  88.9355
 40.9456  7949.96  88.1555
 41.1436  8024.1  88.2972
 41.3416  7845.42  87.6026
 41.5396  7946.25  87.9404
 41.7376  7863  87.8057
 41.9356  7815.58  87.3954
 42.1336  8005.01  88.599
 42.3316  7783.75  87.558
 42.5296  7888.26  87.6685
 42.7276  7826.19  87.5628
 42.9256  7884.26  87.759
 43.1236  7850.86  87.6782
 43.3216  7849.39  87.4163
 43.5196  7738.36  86.856
 43.7176  7718.71  87.1427
 43.9156  7559.81  86.1527
 44.1136  7547.93  85.6387
 44.3116  7675  86.3695
 44.5096  7501.5  85.6948
 44.7076  7578.66  86.0639
 44.9056  7750.84  86.915
 45.1036  7621.8  85.804
 45.3016  7550.35  85.9058
 45.4996  7596.56  86.1104
 45.6976  7491.38  85.6847
 45.8956  7626.84  86.2672
 46.0936  7638.56  86.2855
 46.2916  7560.62  85.869
 46.4896  7596.98  86.1061
 46.6876  7442.76  85.9624
 46.8856  7437.64  85.1777
 47.0836  7489.51  85.7301
 47.2816  7402.18  85.101
 47.4796  7427.28  85.365
 47.6776  7360.6  85.9249
 47.8756  7372.01  85.1482
 48.0736  7403.45  85.8076
 48.2716  7335.36  85.2589
 48.4696  7407.93  85.2491
 48.6676  7571.41  86.771
 48.8656  7376.05  85.3584
 49.0636  7418.14  85.5592
 49.2616  7250.1  84.5069
 49.4596  7294.62  84.5804
 49.6576  7282.75  84.5915
 49.8556  7248.8  84.416
 50.0536  7277.29  85.0392
 50.2516  7226.59  84.8757
 50.4496  7311.49  85.0185
 50.6476  7311.93  84.686
 50.8456  7271.85  84.5349
 51.0436  7078.07  83.8638
 51.2416  7068  83.4679
 51.4396  6897.8  82.8657
 51.6376  6921.06  82.8269
 51.8356  7057.5  83.2524
 52.0336  7010.98  83.5037
 52.2316  7021.9  83.9376
 52.4296  6905.93  82.9371
 52.6276  6913.9  83.1001
 52.8256  7110.01  83.8182
 53.0236  7021.32  83.9478
 53.2216  6941.27  83.5037
 53.4196  6899.46  83.1546
 53.6176  6909.22  83.7183
 53.8156  6943.14  83.5817
 54.0136  6735.16  82.5025
 54.2116  6760.53  82.2826
 54.4096  6705.92  82.0244
 54.6076  6571.07  81.5372
 54.8056  6566.24  81.2727
 55.0036  6491.45  81.233
 55.2016  6649.22  81.7196
 55.3996  6445.13  80.4383
 55.5976  6548.82  81.2947
 55.7956  6472.56  80.6163
 55.9936  6526.06  81.087
 56.1916  6451.57  80.6445
 56.3896  6271.91  79.4923
 56.5876  6404.89  80.9084
 56.7856  6195.71  79.0662
 56.9836  6402.58  80.1458
 57.1816  6403.14  80.5053
 57.3796  6248.34  79.3418
 57.5776  6307.17  79.6195
 57.7756  6200.72  79.6146
 57.9736  6168.36  79.0602
 58.1716  6162.94  79.3006
 58.3696  5924.16  77.5068
 58.5676  6001.02  77.4702
 58.7656  6008.73  78.204
 58.9636  5847.06  77.1675
 59.1616  5923.64  77.8095
 59.3596  5976.77  77.4215
 59.5576  5936.28  77.2148
 59.7556  5806.09  76.7734
 59.9536  6011.63  78.0196
 60.1516  5920.91  78.269
 60.1996  0.0000000E+00  0.0000000E+00