File: docs/examples/opeando_xrd/IS17_D/Data/IS17_D/17_Db_f00120.xye
# /beamlines/bl04/projects/cycle2025-II/20250340211-lsimonelli/DATA/IS17_D/17_Db_f00120.xye : mythproc.py merge -s 0.006 -l 0.5 -f /beamlines/bl04/inhouse/ff/FlatField/ff_20Nov2024rod8mm60s_17keV.raw -b True -c true -o xye /beamlines/bl04/projects/cycle2025-II/20250340211-lsimonelli/DATA/IS17_D/17_Db_00120.dat
# IsMon = [6759354, 6756366, 6760498]  IsPos = [-1.4999, -2.4885, -3.4986]
# Wave = 0.4962  CalPath /beamlines/bl04/projects/cycle2025-II/20250340211-lsimonelli/DATA/Align/Si_Pos1_25keV_f00001.cal
# Date = 2025-09-25_03:08:17 Dt = 4.8000  Bin = 0.0060  <imon> = 6758739 +/- 1742 (Min/Max) 6756366 / 6760498
# icurr 250.5673  mocoIn 1.7082E-05  mocoOut 0.8021  i15 7.08088e+06  imon 6.75874e+06  i7 4.0000  iEMpd_timer 4.8000  iEMpd_1 3.4822E-08  iEMpd_2 8.0330E-08  iEMpd_3 1.6436E-08  iEMpd_4 4.9552E-08  iEMhp_timer 4.8000  iEMhp_1 4.8949E-06  iEMhp_2 -2.6049E-08  iEMhp_3 -2.6654E-08  iEMhp_4 -2.2049E-08
#      9776
 1.7416  69929.5  264.506
 1.9396  48670.3  220.942
 2.1376  36113.2  190.322
 2.3356  32472.6  180.095
 2.5336  29896.4  173.411
 2.7316  27796.3  167.348
 2.9296  26542.9  163.692
 3.1276  26105.9  161.865
 3.3256  25296.3  159.003
 3.5236  26996.5  164.199
 3.7216  24590.5  157.832
 3.9196  23956.2  154.981
 4.1176  23908.3  154.601
 4.3156  24787.4  157.592
 4.5136  27151.5  163.913
 4.7116  28389.5  168.756
 4.9096  27511.3  165.543
 5.1076  27280.8  165.442
 5.3056  27489.1  165.684
 5.5036  26910  163.956
 5.7016  27676.7  166.226
 5.8996  28226.2  167.092
 6.0976  28739.2  170.014
 6.2956  28953  170
 6.4936  29689.3  171.336
 6.6916  30148.9  173.656
 6.8896  30929.4  175.731
 7.0876  32074.6  179.715
 7.2856  31693.9  177.689
 7.4836  32386.8  178.96
 7.6816  33145.1  181.56
 7.8796  33885.7  183.593
 8.0776  35481.9  188.86
 8.2756  37127.9  191.788
 8.4736  37914.4  193.628
 8.6716  37218.1  192.48
 8.8696  37361.1  193.32
 9.0676  36808.9  191.207
 9.2656  36018  189.843
 9.4636  34974.3  185.521
 9.6616  34435.5  184.826
 9.8596  33663.5  182.206
 10.0576  31772.1  177.692
 10.2556  30708.4  175.146
 10.4536  29672.4  171.767
 10.6516  28993.8  169.997
 10.8496  27813.4  165.895
 11.0476  26966.4  163.335
 11.2456  26327.4  161.972
 11.4436  26684.2  162.214
 11.6416  26790.9  162.889
 11.8396  25199.8  158.186
 12.0376  24468  155.503
 12.2356  24185.9  155.064
 12.4336  24177.4  154.545
 12.6316  24087.1  154.521
 12.8296  24038.5  153.973
 13.0276  24612.3  156.022
 13.2256  24775.4  156.905
 13.4236  24715.6  156.483
 13.6216  24821.1  156.812
 13.8196  27012.4  163.02
 14.0176  23824.7  153.711
 14.2156  23626.7  152.098
 14.4136  22406.8  149.499
 14.6116  22153.5  147.835
 14.8096  21335.7  145.076
 15.0076  20579.8  146.393
 15.2056  19531.1  138.422
 15.4036  18620.3  135.989
 15.6016  18159.9  133.39
 15.7996  17684.8  131.894
 15.9976  17564  134.344
 16.1956  17152.1  130.628
 16.3936  16890.3  128.828
 16.5916  16784  129.061
 16.7896  16781.2  129.116
 16.9876  16470.3  129.383
 17.1856  16191.4  126.671
 17.3836  15982.9  125.752
 17.5816  15449.3  124.123
 17.7796  15178.7  122.961
 17.9776  14849  122.379
 18.1756  14901  121.343
 18.3736  14569  120.468
 18.5716  14518.7  120.002
 18.7696  14608.6  119.933
 18.9676  14474.9  119.181
 19.1656  13986.5  117.746
 19.3636  13981.3  117.925
 19.5616  13945.7  117.942
 19.7596  14074.6  117.88
 19.9576  14460.1  119.526
 20.1556  14497.8  120.214
 20.3536  13752.8  116.465
 20.5516  13502.4  115.848
 20.7496  13157.3  114.304
 20.9476  13252.4  114.463
 21.1456  13088.4  114.085
 21.3436  12887.4  113.146
 21.5416  12977.6  113.559
 21.7396  12722.6  112.283
 21.9376  12759.2  112.22
 22.1356  12674.1  111.847
 22.3336  12557.7  111.721
 22.5316  12539.7  111.753
 22.7296  12342.9  110.246
 22.9276  12300.4  110.716
 23.1256  12680.8  111.886
 23.3236  12914.4  113.48
 23.5216  12656.7  111.975
 23.7196  12618.4  111.763
 23.9176  12525.4  111.1
 24.1156  12454.1  111.244
 24.3136  11996.7  110.007
 24.5116  12253.1  110.665
 24.7096  11801.7  108.419
 24.9076  11709.1  108.046
 25.1056  11263.9  106.167
 25.3036  11073.1  105.044
 25.5016  11202.9  105.692
 25.6996  11075.6  104.67
 25.8976  11030.9  104.888
 26.0956  10937  104.45
 26.2936  11007.8  104.458
 26.4916  11222.7  105.329
 26.6896  10783.9  103.554
 26.8876  10797.9  103.475
 27.0856  10522.3  102.17
 27.2836  10372.2  101.511
 27.4816  10255.1  100.721
 27.6796  10269.6  101.159
 27.8776  10461.3  101.953
 28.0756  10048.7  100.22
 28.2736  10169.6  100.394
 28.4716  9966.17  99.4416
 28.6696  9972.59  99.3073
 28.8676  9848.04  99.0515
 29.0656  9761.76  98.5837
 29.2636  9891.57  98.9494
 29.4616  9405.43  96.756
 29.6596  9513.79  96.8792
 29.8576  9287.13  96.3963
 30.0556  9294.98  96.3054
 30.2536  9474.93  97.035
 30.4516  9547.84  97.0367
 30.6496  9712.39  97.6021
 30.8476  9506.27  97.0033
 31.0456  9557.42  97.2332
 31.2436  9480.21  96.096
 31.4416  9282.65  95.2831
 31.6396  9419.43  96.0285
 31.8376  9533.29  96.1194
 32.0356  9281.27  95.429
 32.2336  9337.63  95.1067
 32.4316  8990.63  93.7235
 32.6296  8957.82  93.32
 32.8276  9098.06  93.904
 33.0256  8991.2  93.4083
 33.2236  9012.46  93.6665
 33.4216  8938.64  92.9684
 33.6196  8915.26  93.1444
 33.8176  8889.99  93.1791
 34.0156  8812.1  92.3986
 34.2136  8854.81  92.6373
 34.4116  8645.39  91.7095
 34.6096  8671.99  91.7224
 34.8076  8686.2  92.2201
 35.0056  8551.97  91.1745
 35.2036  8840.35  92.9275
 35.4016  8498.95  91.0237
 35.5996  8573.52  91.456
 35.7976  8407.88  90.853
 35.9956  8604.57  91.5482
 36.1936  8526.22  90.9869
 36.3916  8373.84  90.3585
 36.5896  8431.26  92.1387
 36.7876  8086.06  89.1695
 36.9856  7909.73  88.2155
 37.1836  8023.54  87.9647
 37.3816  8125.77  88.8809
 37.5796  8152.37  90.7529
 37.7776  8187.96  89.3058
 37.9756  8262.07  89.5979
 38.1736  8192.44  89.4043
 38.3716  8123.06  89.2921
 38.5696  8221.87  90.2249
 38.7676  8052.45  88.8131
 38.9656  7961.3  87.9316
 39.1636  8011.39  88.4551
 39.3616  7895.42  87.7784
 39.5596  7921.94  88.757
 39.7576  7860.64  87.8038
 39.9556  7896.19  87.6412
 40.1536  8032.51  88.5854
 40.3516  7982.38  88.4062
 40.5496  8028.52  88.6249
 40.7476  8113.43  89.2921
 40.9456  8104.01  89.0109
 41.1436  8077.4  88.583
 41.3416  7851.09  87.6673
 41.5396  7814.08  87.2746
 41.7376  7884.98  87.9299
 41.9356  7889.26  87.8065
 42.1336  8128.84  89.2743
 42.3316  7859.65  87.9912
 42.5296  7975.8  88.1455
 42.7276  8001.44  88.5337
 42.9256  8015.91  88.4892
 43.1236  7881.67  87.8476
 43.3216  7842.71  87.4822
 43.5196  7805.65  87.2327
 43.7176  7863.62  87.9562
 43.9156  7497.23  85.8023
 44.1136  7641.27  86.1766
 44.3116  7597.8  85.936
 44.5096  7618.83  86.3743
 44.7076  7582.27  86.0963
 44.9056  7755.4  86.9295
 45.1036  7720.01  86.3481
 45.3016  7667.21  86.5543
 45.4996  7588.52  86.0471
 45.6976  7588.61  86.2316
 45.8956  7649.06  86.4016
 46.0936  7737.11  86.897
 46.2916  7506.17  85.5586
 46.4896  7569.29  85.9588
 46.6876  7520.83  86.4088
 46.8856  7525.78  85.7926
 47.0836  7584.51  86.2662
 47.2816  7461.9  85.4528
 47.4796  7488.16  85.7084
 47.6776  7445.64  86.4194
 47.8756  7480.52  85.778
 48.0736  7501.87  86.35
 48.2716  7392.4  85.5564
 48.4696  7473.89  85.6143
 48.6676  7456.88  86.1084
 48.8656  7452.2  85.801
 49.0636  7434.59  85.6536
 49.2616  7278.28  84.7783
 49.4596  7431.25  85.1925
 49.6576  7379.64  85.1441
 49.8556  7335.35  84.9182
 50.0536  7353.29  85.4715
 50.2516  7284.3  85.1898
 50.4496  7222.36  84.5027
 50.6476  7415  85.2905
 50.8456  7248.05  84.4067
 51.0436  7059.24  83.7623
 51.2416  7169.34  84.0759
 51.4396  7040.81  83.7306
 51.6376  7111.31  83.9698
 51.8356  7138.93  83.7403
 52.0336  7009.74  83.4955
 52.2316  7057.08  84.132
 52.4296  6969.98  83.3106
 52.6276  7012.47  83.6711
 52.8256  7079.92  83.6297
 53.0236  7096.7  84.3944
 53.2216  7012.19  83.9287
 53.4196  7069.4  84.1751
 53.6176  7100.13  84.8705
 53.8156  6944.64  83.5967
 54.0136  6728.94  82.4555
 54.2116  6851.85  82.8417
 54.4096  6721.06  82.123
 54.6076  6601.67  81.7298
 54.8056  6603.77  81.5259
 55.0036  6540.8  81.533
 55.2016  6676.95  81.9008
 55.3996  6523.01  80.9366
 55.5976  6562.72  81.382
 55.7956  6558.88  81.1382
 55.9936  6628.17  81.7104
 56.1916  6440.69  80.5755
 56.3896  6268.8  79.4833
 56.5876  6437.44  81.1141
 56.7856  6403.51  80.3823
 56.9836  6407.24  80.1673
 57.1816  6464.54  80.8927
 57.3796  6215.14  79.1143
 57.5776  6280.45  79.4479
 57.7756  6256.57  79.9765
 57.9736  6297.18  79.8923
 58.1716  6208.03  79.5904
 58.3696  6038.48  78.2613
 58.5676  6040.31  77.7447
 58.7656  6144.4  79.0934
 58.9636  6074.95  78.6725
 59.1616  6002.92  78.3354
 59.3596  6035.95  77.8032
 59.5576  6003.84  77.6522
 59.7556  5885.73  77.2974
 59.9536  6126.02  78.7577
 60.1516  5972.96  78.6116
 60.1996  0.0000000E+00  0.0000000E+00