File: docs/examples/opeando_xrd/IS17_D/Data/IS17_D/17_Db_f00052.xye
# /beamlines/bl04/projects/cycle2025-II/20250340211-lsimonelli/DATA/IS17_D/17_Db_f00052.xye : mythproc.py merge -s 0.006 -l 0.5 -f /beamlines/bl04/inhouse/ff/FlatField/ff_20Nov2024rod8mm60s_17keV.raw -b True -c true -o xye /beamlines/bl04/projects/cycle2025-II/20250340211-lsimonelli/DATA/IS17_D/17_Db_00052.dat
# IsMon = [6760501, 6757310, 6758702]  IsPos = [-1.4999, -2.4885, -3.4988]
# Wave = 0.4962  CalPath /beamlines/bl04/projects/cycle2025-II/20250340211-lsimonelli/DATA/Align/Si_Pos1_25keV_f00001.cal
# Date = 2025-09-24_08:10:41 Dt = 4.8000  Bin = 0.0060  <imon> = 6758838 +/- 1306 (Min/Max) 6757310 / 6760501
# icurr 250.0381  mocoIn 1.7061E-05  mocoOut 0.8000  i15 7.07937e+06  imon 6.75884e+06  i7 4.3333  iEMpd_timer 4.8000  iEMpd_1 3.6439E-08  iEMpd_2 7.8928E-08  iEMpd_3 1.7916E-08  iEMpd_4 4.7792E-08  iEMhp_timer 4.8000  iEMhp_1 4.8854E-06  iEMhp_2 -2.6064E-08  iEMhp_3 -2.4494E-08  iEMhp_4 -2.3073E-08
#      9776
 1.7416  70659.1  265.861
 1.9396  48950.8  221.56
 2.1376  36189.5  190.508
 2.3356  32676.7  180.646
 2.5336  30149.2  174.129
 2.7316  27819.5  167.406
 2.9296  26428.4  163.318
 3.1276  26081.6  161.777
 3.3256  25202.7  158.697
 3.5236  26720.1  163.344
 3.7216  24541.6  157.669
 3.9196  24026.7  155.217
 4.1176  23938  154.698
 4.3156  24660.3  157.189
 4.5136  27179.9  163.997
 4.7116  28131.2  167.983
 4.9096  27389.3  165.183
 5.1076  27134  164.995
 5.3056  27218.4  164.978
 5.5036  26911.4  164.036
 5.7016  27299.2  165.092
 5.8996  27746.5  165.667
 6.0976  28645.4  169.736
 6.2956  28708.9  169.288
 6.4936  29429.7  170.584
 6.6916  30009.4  173.247
 6.8896  30864.9  175.557
 7.0876  31775.2  178.871
 7.2856  31732.9  177.797
 7.4836  32175.3  178.371
 7.6816  32929.7  180.968
 7.8796  33682.5  183.047
 8.0776  35103  187.855
 8.2756  36822.8  191.012
 8.4736  37527.4  192.639
 8.6716  36704.8  191.146
 8.8696  37545.4  193.802
 9.0676  36433.8  190.232
 9.2656  35585.1  188.71
 9.4636  34640.9  184.646
 9.6616  33994  183.637
 9.8596  33377.4  181.427
 10.0576  31199.4  176.09
 10.2556  30277.9  173.905
 10.4536  29258.6  170.542
 10.6516  28730.3  169.211
 10.8496  27312.5  164.403
 11.0476  26294.8  161.283
 11.2456  25886.1  160.6
 11.4436  26028.6  160.221
 11.6416  27130.7  163.916
 11.8396  24963.4  157.435
 12.0376  24361  155.164
 12.2356  23992.1  154.44
 12.4336  23954.9  153.836
 12.6316  23820.9  153.662
 12.8296  23949.9  153.698
 13.0276  24311.4  155.07
 13.2256  24540  156.157
 13.4236  24479  155.732
 13.6216  24870.3  156.958
 13.8196  27014.6  163.071
 14.0176  23883.4  153.903
 14.2156  23403.3  151.364
 14.4136  22233.1  148.924
 14.6116  22071.4  147.573
 14.8096  21344.8  145.102
 15.0076  20379.8  145.68
 15.2056  19375.2  137.88
 15.4036  18478.2  135.477
 15.6016  18116.9  133.237
 15.7996  17517.9  131.281
 15.9976  17316.8  133.428
 16.1956  17053.5  130.263
 16.3936  16644.3  127.88
 16.5916  16314.7  127.252
 16.7896  16108.3  126.501
 16.9876  16371.2  129
 17.1856  16243.7  126.866
 17.3836  15625.5  124.331
 17.5816  15204.3  123.124
 17.7796  15140.1  122.788
 17.9776  14561.4  121.183
 18.1756  14535.6  119.847
 18.3736  14372.6  119.649
 18.5716  14201.1  118.692
 18.7696  14185.7  118.196
 18.9676  14076.5  117.544
 19.1656  13752.8  116.76
 19.3636  13841.3  117.333
 19.5616  13720.2  116.981
 19.7596  13995.3  117.54
 19.9576  14291.8  118.833
 20.1556  14703.5  121.076
 20.3536  13905.4  117.107
 20.5516  13430.4  115.532
 20.7496  13220.2  114.575
 20.9476  13190.3  114.195
 21.1456  12980.5  113.612
 21.3436  12801.3  112.778
 21.5416  12716.8  112.418
 21.7396  12691  112.147
 21.9376  12610  111.56
 22.1356  12675.9  111.975
 22.3336  12403.2  111.036
 22.5316  12387.2  111.074
 22.7296  12409.5  110.546
 22.9276  12283.3  110.644
 23.1256  12565.4  111.385
 23.3236  12680.1  112.449
 23.5216  12580.9  111.638
 23.7196  12403.4  110.802
 23.9176  12599.9  111.422
 24.1156  12210.8  110.145
 24.3136  11990.2  109.969
 24.5116  12071.2  109.851
 24.7096  11672.5  107.839
 24.9076  11610.7  107.576
 25.1056  11307.1  106.371
 25.3036  10982.2  104.61
 25.5016  10952  104.5
 25.6996  11075.4  104.669
 25.8976  11000.8  104.743
 26.0956  10884.1  104.202
 26.2936  10773  103.335
 26.4916  11163.9  105.049
 26.6896  10875.1  103.987
 26.8876  10674.4  102.881
 27.0856  10451.3  101.81
 27.2836  10308.5  101.046
 27.4816  10316.9  101.021
 27.6796  10205.6  100.853
 27.8776  10423.7  101.764
 28.0756  9981.24  99.8778
 28.2736  10004.4  99.5809
 28.4716  9850.04  98.8616
 28.6696  9895.15  98.9364
 28.8676  9813.92  98.8747
 29.0656  9756.85  98.5659
 29.2636  9829.35  98.6344
 29.4616  9402.64  96.7455
 29.6596  9556.33  97.0995
 29.8576  9255.95  96.2381
 30.0556  9170.41  95.665
 30.2536  9385.97  96.5829
 30.4516  9570.89  97.1499
 30.6496  9549.95  96.7837
 30.8476  9463.64  96.7792
 31.0456  9412.43  96.4861
 31.2436  9352.59  95.4429
 31.4416  9239.23  95.0586
 31.6396  9435.5  96.1066
 31.8376  9368.37  95.2788
 32.0356  9268.39  95.3425
 32.2336  9188.88  94.3372
 32.4316  8930.02  93.4047
 32.6296  9049.4  93.7977
 32.8276  9007.25  93.4328
 33.0256  8791.76  92.3693
 33.2236  8865.46  92.8918
 33.4216  8913.98  92.8367
 33.6196  8846.79  92.783
 33.8176  8847.6  92.9552
 34.0156  8712.64  91.8752
 34.2136  8761.55  92.1456
 34.4116  8544.55  91.1771
 34.6096  8626.51  91.4845
 34.8076  8593.69  91.7271
 35.0056  8538.22  91.101
 35.2036  8698.18  92.1761
 35.4016  8392.37  90.4589
 35.5996  8446.95  90.7832
 35.7976  8376.63  90.675
 35.9956  8578.48  91.4128
 36.1936  8361.93  90.1075
 36.3916  8351.45  90.2375
 36.5896  8298.23  91.4047
 36.7876  8114.45  89.3328
 36.9856  7919.58  88.2773
 37.1836  7983.99  87.7484
 37.3816  8035.95  88.3985
 37.5796  8146.75  90.7271
 37.7776  8098.09  88.816
 37.9756  8101.51  88.7169
 38.1736  8238.89  89.667
 38.3716  8046  88.8763
 38.5696  7902.4  88.4595
 38.7676  7874.54  87.8156
 38.9656  8016.85  88.2278
 39.1636  7966.38  88.2012
 39.3616  8019.13  88.4613
 39.5596  7912.03  88.7082
 39.7576  7754.72  87.211
 39.9556  7912.87  87.7355
 40.1536  8004.14  88.4288
 40.3516  7939.37  88.0872
 40.5496  7991.82  88.4272
 40.7476  8034.01  88.8695
 40.9456  7927.46  88.0386
 41.1436  8050.44  88.4352
 41.3416  7937.58  88.153
 41.5396  7965.76  88.1137
 41.7376  7788.68  87.3915
 41.9356  7939.28  88.0842
 42.1336  8041.82  88.7803
 42.3316  7788.74  87.5983
 42.5296  7885.54  87.6514
 42.7276  7940.25  88.2012
 42.9256  7845.54  87.5448
 43.1236  7710.54  86.877
 43.3216  7841.08  87.4712
 43.5196  7761.15  86.9899
 43.7176  7667.44  86.8576
 43.9156  7475.77  85.6865
 44.1136  7497.81  85.3674
 44.3116  7550.94  85.6781
 44.5096  7566.26  86.0783
 44.7076  7498.89  85.623
 44.9056  7690.13  86.5654
 45.1036  7553.97  85.4216
 45.3016  7597.3  86.1657
 45.4996  7523.35  85.6842
 45.6976  7541.22  85.9695
 45.8956  7488.45  85.4802
 46.0936  7668.02  86.5007
 46.2916  7464.72  85.3321
 46.4896  7619.36  86.229
 46.6876  7526.83  86.4323
 46.8856  7532.07  85.7125
 47.0836  7462.09  85.5649
 47.2816  7349.97  84.8064
 47.4796  7359.06  84.9701
 47.6776  7318  85.6823
 47.8756  7437.01  85.5365
 48.0736  7424.88  85.9279
 48.2716  7290.93  84.9682
 48.4696  7531.98  85.9416
 48.6676  7357.81  85.5329
 48.8656  7415.21  85.5878
 49.0636  7452.79  85.749
 49.2616  7331.72  85.0955
 49.4596  7326.93  84.6202
 49.6576  7288.7  84.6163
 49.8556  7275.72  84.573
 50.0536  7326.47  85.317
 50.2516  7248.12  84.979
 50.4496  7303.94  84.9793
 50.6476  7332.44  84.8154
 50.8456  7344.74  84.9613
 51.0436  7023.81  83.5527
 51.2416  7047.21  83.3626
 51.4396  6841.16  82.5383
 51.6376  7012.75  83.3856
 51.8356  7012.86  83.0014
 52.0336  7077.63  83.897
 52.2316  7128.86  84.5638
 52.4296  7005.97  83.5328
 52.6276  6922.08  83.1422
 52.8256  6962.43  82.9353
 53.0236  7121.54  84.5339
 53.2216  6962.86  83.6279
 53.4196  6870.59  82.9733
 53.6176  6850.83  83.3614
 53.8156  6887.09  83.2499
 54.0136  6612.35  81.7468
 54.2116  6854.71  82.8422
 54.4096  6692.2  81.9399
 54.6076  6615.36  81.8116
 54.8056  6543.51  81.1389
 55.0036  6580.11  81.7829
 55.2016  6653.28  81.7351
 55.3996  6476.9  80.6454
 55.5976  6610.23  81.6682
 55.7956  6498.4  80.772
 55.9936  6581.47  81.4285
 56.1916  6377.62  80.1877
 56.3896  6262.17  79.4491
 56.5876  6394.23  80.826
 56.7856  6318.17  79.8477
 56.9836  6380.4  80.0151
 57.1816  6393.14  80.4559
 57.3796  6237.3  79.2867
 57.5776  6237.27  79.1796
 57.7756  6231.77  79.8239
 57.9736  6127.78  78.7982
 58.1716  6064.03  78.6671
 58.3696  6043.07  78.2925
 58.5676  6027.54  77.6668
 58.7656  5944.36  77.7982
 58.9636  5996.81  78.1687
 59.1616  5963.46  78.0814
 59.3596  5946.35  77.234
 59.5576  5975.66  77.4806
 59.7556  5908.06  77.4548
 59.9536  6052.7  78.2959
 60.1516  5984.3  78.6972
 60.1996  0.0000000E+00  0.0000000E+00