File: docs/examples/opeando_xrd/IS17_D/Data/IS17_D/17_Db_f00032.xye
# /beamlines/bl04/projects/cycle2025-II/20250340211-lsimonelli/DATA/IS17_D/17_Db_f00032.xye : mythproc.py merge -s 0.006 -l 0.5 -f /beamlines/bl04/inhouse/ff/FlatField/ff_20Nov2024rod8mm60s_17keV.raw -b True -c true -o xye /beamlines/bl04/projects/cycle2025-II/20250340211-lsimonelli/DATA/IS17_D/17_Db_00032.dat
# IsMon = [6788482, 6786635, 6790753]  IsPos = [-1.5000, -2.4885, -3.4986]
# Wave = 0.4962  CalPath /beamlines/bl04/projects/cycle2025-II/20250340211-lsimonelli/DATA/Align/Si_Pos1_25keV_f00001.cal
# Date = 2025-09-24_02:37:44 Dt = 4.8000  Bin = 0.0060  <imon> = 6788623 +/- 1684 (Min/Max) 6786635 / 6790753
# icurr 253.1984  mocoIn 1.7270E-05  mocoOut 0.8106  i15 7.11106e+06  imon 6.78862e+06  i7 4.6667  iEMpd_timer 4.8000  iEMpd_1 3.6277E-08  iEMpd_2 7.6979E-08  iEMpd_3 1.6225E-08  iEMpd_4 4.8222E-08  iEMhp_timer 4.8000  iEMhp_1 4.9458E-06  iEMhp_2 -2.6216E-08  iEMhp_3 -2.3424E-08  iEMhp_4 -2.1164E-08
#      9776
 1.7416  70677.9  265.932
 1.9396  49092.8  221.922
 2.1376  35316.6  188.222
 2.3356  31754.4  178.102
 2.5336  29603.5  172.57
 2.7316  27084.4  165.193
 2.9296  26121.1  162.386
 3.1276  25362.2  159.538
 3.3256  24545.9  156.621
 3.5236  26328.3  162.153
 3.7216  23916.3  155.642
 3.9196  23526.8  153.577
 4.1176  23316  152.676
 4.3156  24415  156.405
 4.5136  26794.5  162.831
 4.7116  27772.7  166.911
 4.9096  27136.3  164.412
 5.1076  27061.1  164.776
 5.3056  27263  164.989
 5.5036  26457.8  162.571
 5.7016  27132  164.585
 5.8996  27636.1  165.337
 6.0976  28496.9  169.297
 6.2956  28481.8  168.609
 6.4936  29139.2  169.738
 6.6916  29522  171.834
 6.8896  30192.3  173.625
 7.0876  31594  178.266
 7.2856  30943.2  175.573
 7.4836  31178.4  175.577
 7.6816  32232.9  179.037
 7.8796  32294.7  179.223
 8.0776  34198.3  185.405
 8.2756  35826.6  188.394
 8.4736  36210.2  189.221
 8.6716  35593.2  188.224
 8.8696  36192.7  190.274
 9.0676  35485.4  187.728
 9.2656  34342.6  185.373
 9.4636  33430.1  181.381
 9.6616  32732.2  180.19
 9.8596  32045.7  177.779
 10.0576  29888.1  172.339
 10.2556  29215.6  170.837
 10.4536  28399.9  168.034
 10.6516  28039.2  167.176
 10.8496  26638.7  162.358
 11.0476  25587.8  159.102
 11.2456  24954.5  157.69
 11.4436  25366.8  158.167
 11.6416  25676.6  159.462
 11.8396  24083.7  154.64
 12.0376  23426  152.151
 12.2356  23179.4  151.803
 12.4336  23236.4  151.504
 12.6316  23147.4  151.474
 12.8296  23191.6  151.242
 13.0276  23372  152.038
 13.2256  23842.7  153.912
 13.4236  23521.9  152.657
 13.6216  24032.2  154.297
 13.8196  26220.1  160.606
 14.0176  23043.9  151.171
 14.2156  22648.2  148.905
 14.4136  21504.9  146.462
 14.6116  21325.6  145.052
 14.8096  20650  142.715
 15.0076  19639.5  143.017
 15.2056  18846.1  135.975
 15.4036  17902.7  133.337
 15.6016  17571.5  131.207
 15.7996  17190.5  130.039
 15.9976  16867.1  131.674
 16.1956  16471.5  128.029
 16.3936  16256  126.378
 16.5916  16171.6  126.685
 16.7896  15955.9  125.899
 16.9876  15741.4  126.493
 17.1856  15557.1  124.162
 17.3836  15300.2  123.042
 17.5816  14905.1  121.912
 17.7796  14583.3  120.523
 17.9776  14309.9  120.139
 18.1756  14293.4  118.841
 18.3736  14018.8  118.168
 18.5716  13970.1  117.714
 18.7696  13941.8  117.177
 18.9676  13630.3  115.657
 19.1656  13435.6  115.399
 19.3636  13381.2  115.366
 19.5616  13424.6  115.713
 19.7596  13678.3  116.206
 19.9576  13673.9  116.241
 20.1556  14072.1  118.434
 20.3536  13295.2  114.517
 20.5516  13013.8  113.726
 20.7496  12853.3  112.878
 20.9476  12820.6  112.585
 21.1456  12606.4  111.962
 21.3436  12491.2  111.403
 21.5416  12417.3  111.085
 21.7396  12109.1  109.544
 21.9376  12172.5  109.603
 22.1356  12298.6  110.32
 22.3336  11895.4  108.732
 22.5316  11831.6  108.548
 22.7296  11942.5  108.433
 22.9276  11822.5  108.54
 23.1256  12173.6  109.625
 23.3236  12352.9  110.987
 23.5216  12106.1  109.507
 23.7196  12289.4  110.511
 23.9176  12267  109.945
 24.1156  11943.4  108.933
 24.3136  11629.2  108.306
 24.5116  11781.7  108.535
 24.7096  11349.3  106.344
 24.9076  11193.9  105.646
 25.1056  10989.2  104.866
 25.3036  10731.5  103.402
 25.5016  10622  102.915
 25.6996  10685.8  102.807
 25.8976  10704.5  103.33
 26.0956  10601.1  102.837
 26.2936  10517.4  102.101
 26.4916  10882.6  103.719
 26.6896  10398.5  101.684
 26.8876  10335.8  101.232
 27.0856  10156.2  100.371
 27.2836  9994.7  99.6498
 27.4816  10011.9  99.5237
 27.6796  9924.26  99.4441
 27.8776  10032  99.841
 28.0756  9788.05  98.9071
 28.2736  9668.72  97.8981
 28.4716  9572.36  97.4573
 28.6696  9702.15  97.9552
 28.8676  9510.28  97.3342
 29.0656  9361.31  96.5441
 29.2636  9487.95  96.9111
 29.4616  9056.21  94.938
 29.6596  9114.78  94.8252
 29.8576  9005.85  94.9227
 30.0556  9066.98  95.1207
 30.2536  9087.24  95.0295
 30.4516  9215.41  95.3265
 30.6496  9074.79  94.3437
 30.8476  9216.7  95.499
 31.0456  9199.3  95.3877
 31.2436  9256.57  94.9582
 31.4416  9050.23  94.0824
 31.6396  9043.72  94.0863
 31.8376  9148.2  94.1595
 32.0356  9064.41  94.2861
 32.2336  8945.87  93.0927
 32.4316  8681.14  92.0984
 32.6296  8660.93  91.7571
 32.8276  8691.26  91.7783
 33.0256  8678.42  91.7685
 33.2236  8636.29  91.6879
 33.4216  8547.04  90.9065
 33.6196  8547.02  91.1995
 33.8176  8547.91  91.3741
 34.0156  8450.44  90.4788
 34.2136  8564.86  91.1113
 34.4116  8263.97  89.664
 34.6096  8304.59  89.7575
 34.8076  8177.22  89.4798
 35.0056  8320.62  89.9298
 35.2036  8492.87  91.0826
 35.4016  8185.69  89.3254
 35.5996  8084.03  88.8157
 35.7976  8168.2  89.5341
 35.9956  8349.18  90.1736
 36.1936  8188.07  89.1627
 36.3916  8065.81  88.6875
 36.5896  8070.17  90.1417
 36.7876  7772.55  87.4205
 36.9856  7620.35  86.59
 37.1836  7728.69  86.3327
 37.3816  7814.76  87.1635
 37.5796  7894.43  89.3072
 37.7776  7915.97  87.8048
 37.9756  7970.01  87.9965
 38.1736  7941.21  88.0236
 38.3716  7826.65  87.6632
 38.5696  7761.83  87.6695
 38.7676  7692.37  86.8036
 38.9656  7714.96  86.5585
 39.1636  7713.57  86.7943
 39.3616  7791.57  87.198
 39.5596  7578.74  86.8161
 39.7576  7674.99  86.7612
 39.9556  7663.41  86.3385
 40.1536  7815.93  87.3802
 40.3516  7685.38  86.7421
 40.5496  7778.53  87.24
 40.7476  7780.51  87.459
 40.9456  7773.26  87.1763
 41.1436  7769.08  86.8691
 41.3416  7598.65  86.2489
 41.5396  7591.02  86.0134
 41.7376  7675.75  86.7458
 41.9356  7652.11  86.4641
 42.1336  7840.64  87.6746
 42.3316  7599.72  86.5231
 42.5296  7681.45  86.5089
 42.7276  7679.71  86.7332
 42.9256  7614.27  86.2454
 43.1236  7592.19  86.2139
 43.3216  7546.56  85.8151
 43.5196  7530.02  85.6732
 43.7176  7528.71  86.0602
 43.9156  7257  84.4138
 44.1136  7244.3  83.9066
 44.3116  7453.66  85.1151
 44.5096  7389.11  85.0592
 44.7076  7276.97  84.3364
 44.9056  7492.64  85.4451
 45.1036  7490.76  85.0506
 45.3016  7286.78  84.3827
 45.4996  7333.55  84.5984
 45.6976  7271.9  84.4157
 45.8956  7358.74  84.7444
 46.0936  7415.6  84.8326
 46.2916  7373.32  84.8061
 46.4896  7409.09  85.0294
 46.6876  7338.72  85.3551
 46.8856  7238.98  84.1401
 47.0836  7286.6  84.5576
 47.2816  7196.13  83.9152
 47.4796  7303.39  84.6384
 47.6776  7055.84  84.1297
 47.8756  7262.52  84.5281
 48.0736  7308.11  85.2229
 48.2716  7135.88  84.0464
 48.4696  7259.15  84.3675
 48.6676  7213.08  84.6876
 48.8656  7188.97  84.2795
 49.0636  7293.13  84.8226
 49.2616  7101.17  83.7442
 49.4596  7202.61  83.897
 49.6576  7118.91  83.6302
 49.8556  7110.69  83.6081
 50.0536  7038.39  83.6309
 50.2516  7074.09  83.9437
 50.4496  7048.67  83.4814
 50.6476  7100.15  83.4595
 50.8456  7128.54  83.7104
 51.0436  6909.76  82.8649
 51.2416  6844.07  82.1366
 51.4396  6681.93  81.5619
 51.6376  6858.56  82.4596
 51.8356  6846  82.0073
 52.0336  6867.32  82.638
 52.2316  6817.6  82.699
 52.4296  6705.04  81.7146
 52.6276  6673.75  81.6248
 52.8256  6920.89  82.6866
 53.0236  6817.59  82.7165
 53.2216  6740.16  82.2658
 53.4196  6762.51  82.3247
 53.6176  6828.96  83.231
 53.8156  6623.51  81.6484
 54.0136  6465.29  80.8291
 54.2116  6601.29  81.3041
 54.4096  6468.53  80.5608
 54.6076  6448.98  80.776
 54.8056  6362.51  80.0235
 55.0036  6506.42  81.1765
 55.2016  6394.64  80.0776
 55.3996  6264.12  79.3025
 55.5976  6341.82  79.9904
 55.7956  6284.59  79.433
 55.9936  6377.75  80.1319
 56.1916  6287.11  79.626
 56.3896  6077.73  78.2647
 56.5876  6110.23  78.9971
 56.7856  6149.34  78.7761
 56.9836  6223.69  79.012
 57.1816  6260.32  79.6123
 57.3796  6114.74  78.4629
 57.5776  6223.29  79.0587
 57.7756  6019.17  78.4318
 57.9736  6025.35  78.1568
 58.1716  5894.68  77.5516
 58.3696  5807.2  76.7486
 58.5676  5775.03  76.016
 58.7656  5730.83  76.3831
 58.9636  5766.5  76.651
 59.1616  5762.94  76.7495
 59.3596  5751.49  75.9446
 59.5576  5852.26  76.6636
 59.7556  5728.88  76.2584
 59.9536  5784.17  76.5266
 60.1516  5642.28  76.4025
 60.1996  0.0000000E+00  0.0000000E+00