File: docs/examples/opeando_xrd/IS17_D/Data/IS17_D/17_Da_f00050.xye
# /beamlines/bl04/projects/cycle2025-II/20250340211-lsimonelli/DATA/IS17_D/17_Da_f00050.xye : mythproc.py merge -s 0.006 -l 0.5 -f /beamlines/bl04/inhouse/ff/FlatField/ff_20Nov2024rod8mm60s_17keV.raw -b True -c true -o xye /beamlines/bl04/projects/cycle2025-II/20250340211-lsimonelli/DATA/IS17_D/17_Da_00050.dat
# IsMon = [6762006, 6766016, 6767393]  IsPos = [-1.5000, -2.4884, -3.4986]
# Wave = 0.4962  CalPath /beamlines/bl04/projects/cycle2025-II/20250340211-lsimonelli/DATA/Align/Si_Pos1_25keV_f00001.cal
# Date = 2025-09-24_07:29:20 Dt = 4.8000  Bin = 0.0060  <imon> = 6765138 +/- 2285 (Min/Max) 6762006 / 6767393
# icurr 250.3787  mocoIn 1.7085E-05  mocoOut 0.8015  i15 7.08374e+06  imon 6.76514e+06  i7 8.6667  iEMpd_timer 4.8000  iEMpd_1 3.5293E-08  iEMpd_2 7.8344E-08  iEMpd_3 1.6994E-08  iEMpd_4 4.8318E-08  iEMhp_timer 4.8000  iEMhp_1 4.8920E-06  iEMhp_2 -2.4880E-08  iEMhp_3 -2.3991E-08  iEMhp_4 -2.0929E-08
#      9776
 1.7416  70931.2  266.467
 1.9396  47004.1  217.202
 2.1376  33708.1  183.926
 2.3356  30353.3  174.167
 2.5336  28008.4  167.893
 2.7316  26391.5  163.065
 2.9296  25662  160.964
 3.1276  25019.8  158.488
 3.3256  24316.2  155.889
 3.5236  26315.6  161.969
 3.7216  23897.7  155.599
 3.9196  23410.6  153.226
 4.1176  23280.9  152.574
 4.3156  24552.2  156.842
 4.5136  26806.4  162.861
 4.7116  27767.7  166.902
 4.9096  27216.4  164.669
 5.1076  27085.3  164.864
 5.3056  27147  164.662
 5.5036  26844.1  163.698
 5.7016  27280.6  165.039
 5.8996  27766.7  165.711
 6.0976  28785.8  170.188
 6.2956  29268.6  170.923
 6.4936  29940.9  172.069
 6.6916  30546.6  174.809
 6.8896  31254.8  176.678
 7.0876  32559.9  180.999
 7.2856  32310.7  179.423
 7.4836  32671.5  179.752
 7.6816  33318.9  182.058
 7.8796  34701.1  185.773
 8.0776  36238.9  190.837
 8.2756  38109  194.281
 8.4736  38830.7  195.925
 8.6716  38141  194.82
 8.8696  38184.4  195.445
 9.0676  37121.4  192.053
 9.2656  36064  189.994
 9.4636  35691.4  187.397
 9.6616  34996.6  186.34
 9.8596  33528.3  181.869
 10.0576  31607.9  177.249
 10.2556  30631  174.929
 10.4536  29924.9  172.501
 10.6516  28779.2  169.364
 10.8496  27887.7  166.119
 11.0476  27091.3  163.758
 11.2456  26378.4  162.118
 11.4436  26459.5  161.538
 11.6416  27589.4  165.318
 11.8396  25210  158.242
 12.0376  25032.9  157.308
 12.2356  24338.4  155.517
 12.4336  24252.5  154.79
 12.6316  24187.9  154.855
 12.8296  24641.8  155.933
 13.0276  25103.7  157.565
 13.2256  25277.2  158.481
 13.4236  25215.6  158.057
 13.6216  24890.4  157.058
 13.8196  24782.7  156.476
 14.0176  24516.3  155.917
 14.2156  23846  152.816
 14.4136  22860  151.001
 14.6116  22553.6  149.191
 14.8096  22002  147.335
 15.0076  20737.4  146.894
 15.2056  20406.6  141.479
 15.4036  19319.1  138.496
 15.6016  19198  137.127
 15.7996  18638.2  135.397
 15.9976  17853.4  135.501
 16.1956  17153.3  130.687
 16.3936  17001.2  129.274
 16.5916  16562.6  128.222
 16.7896  16687.9  128.772
 16.9876  16509.3  129.563
 17.1856  16266  126.957
 17.3836  15877.7  125.334
 17.5816  15193.7  123.096
 17.7796  15101.2  122.648
 17.9776  14753.4  122.009
 18.1756  14906  121.346
 18.3736  14574.5  120.494
 18.5716  14367  119.385
 18.7696  14373.7  118.986
 18.9676  14192.1  118.043
 19.1656  14050.2  118.007
 19.3636  14118.3  118.494
 19.5616  14088.6  118.54
 19.7596  14190.7  118.376
 19.9576  14251.6  118.674
 20.1556  15330.8  123.629
 20.3536  14339  118.93
 20.5516  13838.3  117.283
 20.7496  13439.1  115.439
 20.9476  13228.3  114.371
 21.1456  13386.4  115.374
 21.3436  13312.3  115.011
 21.5416  13125.7  114.199
 21.7396  12999.7  113.497
 21.9376  12974  113.148
 22.1356  12971.4  113.291
 22.3336  12776.3  112.694
 22.5316  12796.9  112.867
 22.7296  13004.2  113.132
 22.9276  12897.9  113.353
 23.1256  13057.1  113.517
 23.3236  13017.9  113.933
 23.5216  12910.5  113.112
 23.7196  12584.2  111.844
 23.9176  12679.5  111.799
 24.1156  12497.6  111.466
 24.3136  12032.1  110.172
 24.5116  12119  110.09
 24.7096  11604.8  107.547
 24.9076  11556  107.349
 25.1056  11447.6  107.311
 25.3036  11342.1  106.31
 25.5016  11253  105.931
 25.6996  11154.4  105.046
 25.8976  11144.2  105.438
 26.0956  11107.7  105.276
 26.2936  11128.3  105.02
 26.4916  11165.7  105.074
 26.6896  10883.3  104.034
 26.8876  10715  103.083
 27.0856  10714.7  103.158
 27.2836  10613.2  102.693
 27.4816  10458.1  101.722
 27.6796  10367.1  101.652
 27.8776  10291  101.14
 28.0756  10259.1  101.261
 28.2736  10294.1  101.018
 28.4716  10109.8  100.157
 28.6696  10089.4  99.8982
 28.8676  10017.9  99.9015
 29.0656  9837.95  98.9748
 29.2636  9814.46  98.6536
 29.4616  9763.09  98.5634
 29.6596  9825.63  98.4424
 29.8576  9622.87  98.1097
 30.0556  9682.59  98.2866
 30.2536  9711.58  98.2289
 30.4516  9539.5  97.0218
 30.6496  9705.79  97.588
 30.8476  9445.66  96.7132
 31.0456  9561.43  97.2634
 31.2436  9590.84  96.6775
 31.4416  9235.43  95.0474
 31.6396  9466.87  96.2778
 31.8376  9311.11  95.0223
 32.0356  9278.62  95.4304
 32.2336  9188.09  94.3522
 32.4316  9131.72  94.4587
 32.6296  9121.41  94.2395
 32.8276  9123.16  94.0237
 33.0256  9010.3  93.5176
 33.2236  8919.64  93.1988
 33.4216  9158.91  94.1189
 33.6196  9084.26  94.0323
 33.8176  8916.94  93.3297
 34.0156  8919.5  92.9511
 34.2136  8827.13  92.5155
 34.4116  8782.36  92.4223
 34.6096  8770.14  92.2401
 34.8076  8610.94  91.8139
 35.0056  8661.15  91.7674
 35.2036  8651.75  91.9268
 35.4016  8606.65  91.605
 35.5996  8660.71  91.9319
 35.7976  8449.76  91.0762
 35.9956  8522.68  91.1173
 36.1936  8409.35  90.3799
 36.3916  8430.04  90.6659
 36.5896  8348.46  91.2066
 36.7876  8371.22  90.7171
 36.9856  8285.08  90.2757
 37.1836  8377.75  89.8749
 37.3816  8359.69  90.142
 37.5796  8199.1  91.0073
 37.7776  8139.35  89.0613
 37.9756  8134.34  88.9096
 38.1736  8307.55  90.0475
 38.3716  8226.5  89.888
 38.5696  8157.7  89.8834
 38.7676  7923.55  88.1017
 38.9656  8005.91  88.1905
 39.1636  8044.19  88.6693
 39.3616  7997.49  88.3351
 39.5596  7960.66  88.983
 39.7576  8015.65  88.6594
 39.9556  8052.44  88.5005
 40.1536  8075.27  88.83
 40.3516  8199.74  89.6196
 40.5496  8138.93  89.4568
 40.7476  8140.73  89.4622
 40.9456  8243.56  89.775
 41.1436  8114.23  88.7938
 41.3416  8026.79  88.6434
 41.5396  8023.2  88.4315
 41.7376  8017.82  88.6677
 41.9356  7989.27  88.3668
 42.1336  8036.78  88.7864
 42.3316  7897.07  88.2019
 42.5296  7844.66  87.4271
 42.7276  7969.07  88.3612
 42.9256  8017.79  88.4963
 43.1236  7785.62  87.3155
 43.3216  7901.26  87.7048
 43.5196  7713.67  86.73
 43.7176  7779.43  87.489
 43.9156  7642.85  86.6205
 44.1136  7661.66  86.278
 44.3116  7719.02  86.6148
 44.5096  7628.43  86.4162
 44.7076  7586.18  86.1066
 44.9056  7658.54  86.3939
 45.1036  7502.53  85.1377
 45.3016  7539.95  85.8467
 45.4996  7409.38  85.0438
 45.6976  7426.68  85.3124
 45.8956  7502.18  85.5719
 46.0936  7468.78  85.1409
 46.2916  7433.25  85.1586
 46.4896  7483.7  85.4764
 46.6876  7430.02  85.8899
 46.8856  7243.95  84.16
 47.0836  7349.93  84.933
 47.2816  7271.12  84.3494
 47.4796  7285.85  84.5355
 47.6776  7199.64  84.984
 47.8756  7222.18  84.2873
 48.0736  7227.58  84.7643
 48.2716  7036.48  83.4652
 48.4696  7113.44  83.5208
 48.6676  7024.01  83.573
 48.8656  7098.99  83.745
 49.0636  7105.1  83.733
 49.2616  6938.56  82.7739
 49.4596  6954.17  82.4374
 49.6576  6971.25  82.7667
 49.8556  6960.6  82.721
 50.0536  6884.1  82.7077
 50.2516  6945.42  83.2075
 50.4496  6786.58  81.9086
 50.6476  6935.58  82.4832
 50.8456  6847.33  82.0433
 51.0436  6667.47  81.3937
 51.2416  6711.98  81.3412
 51.4396  6650.12  81.3599
 51.6376  6613.53  80.965
 51.8356  6679.98  81.0016
 52.0336  6642.42  81.2884
 52.2316  6621.55  81.5129
 52.4296  6683.94  81.577
 52.6276  6614.98  81.2692
 52.8256  6522.94  80.2608
 53.0236  6521.95  80.9101
 53.2216  6505.66  80.8176
 53.4196  6372.93  79.9383
 53.6176  6363.89  80.3586
 53.8156  6405.76  80.2969
 54.0136  6489.39  80.9818
 54.2116  6347.69  79.765
 54.4096  6425.2  80.2912
 54.6076  6356.86  80.2203
 54.8056  6358.71  80.0165
 55.0036  6275.81  79.7635
 55.2016  6324.87  79.6625
 55.3996  6360.76  79.9321
 55.5976  6305.23  79.7755
 55.7956  6285.42  79.4657
 55.9936  6294.21  79.657
 56.1916  6279.85  79.5841
 56.3896  6319.91  79.8271
 56.5876  6207.68  79.6699
 56.7856  6171.85  78.9181
 56.9836  6213.28  78.972
 57.1816  6167.26  79.0572
 57.3796  6272.78  79.4951
 57.5776  6358.14  79.9905
 57.7756  6213.5  79.7201
 57.9736  6165.86  79.0838
 58.1716  6194.72  79.5104
 58.3696  6226.08  79.4512
 58.5676  6260.52  79.1427
 58.7656  6179.47  79.3038
 58.9636  6304.31  80.137
 59.1616  6215.98  79.7002
 59.3596  6301.01  79.4899
 59.5576  6196.45  78.8851
 59.7556  6171.79  79.1506
 59.9536  6245  79.5159
 60.1516  6230.44  80.2851
 60.1996  0.0000000E+00  0.0000000E+00