File: docs/examples/opeando_xrd/IS17_D/Data/IS17_D/17_Da_f00084.xye
# /beamlines/bl04/projects/cycle2025-II/20250340211-lsimonelli/DATA/IS17_D/17_Da_f00084.xye : mythproc.py merge -s 0.006 -l 0.5 -f /beamlines/bl04/inhouse/ff/FlatField/ff_20Nov2024rod8mm60s_17keV.raw -b True -c true -o xye /beamlines/bl04/projects/cycle2025-II/20250340211-lsimonelli/DATA/IS17_D/17_Da_00084.dat
# IsMon = [6794451, 6798292, 6796575]  IsPos = [-1.4999, -2.4884, -3.4988]
# Wave = 0.4962  CalPath /beamlines/bl04/projects/cycle2025-II/20250340211-lsimonelli/DATA/Align/Si_Pos1_25keV_f00001.cal
# Date = 2025-09-24_16:57:35 Dt = 4.8000  Bin = 0.0060  <imon> = 6796439 +/- 1571 (Min/Max) 6794451 / 6798292
# icurr 253.0853  mocoIn 1.7261E-05  mocoOut 0.8101  i15 7.10872e+06  imon 6.79644e+06  i7 6.3333  iEMpd_timer 4.8000  iEMpd_1 3.3393E-08  iEMpd_2 7.8261E-08  iEMpd_3 1.6593E-08  iEMpd_4 4.7210E-08  iEMhp_timer 4.8000  iEMhp_1 4.9420E-06  iEMhp_2 -2.5694E-08  iEMhp_3 -2.3704E-08  iEMhp_4 -2.2264E-08
#      9776
 1.7416  70397.2  265.44
 1.9396  45825.4  214.441
 2.1376  32556.7  180.742
 2.3356  29038.3  170.338
 2.5336  27395.1  166.03
 2.7316  25368.2  159.856
 2.9296  24339.2  156.746
 3.1276  23714.8  154.284
 3.3256  23582.7  153.507
 3.5236  25288.4  158.766
 3.7216  23294.1  153.619
 3.9196  22907.8  151.568
 4.1176  22789.9  150.957
 4.3156  24053.6  155.243
 4.5136  26450.2  161.771
 4.7116  27564.4  166.292
 4.9096  26869.7  163.618
 5.1076  26600.1  163.377
 5.3056  27117.2  164.683
 5.5036  27002.3  164.222
 5.7016  27309.1  165.124
 5.8996  27843.2  165.932
 6.0976  28740  170.048
 6.2956  29156  170.595
 6.4936  29680.1  171.308
 6.6916  30200.3  173.817
 6.8896  30737.7  175.216
 7.0876  32039.4  179.619
 7.2856  31839.7  178.109
 7.4836  32017  177.94
 7.6816  32937  181.017
 7.8796  34417.3  185.021
 8.0776  36343.5  191.118
 8.2756  38178.4  194.474
 8.4736  38545.2  195.209
 8.6716  37725  193.755
 8.8696  37477.8  193.625
 9.0676  36809.9  191.25
 9.2656  35886  189.528
 9.4636  35428.6  186.711
 9.6616  34645.2  185.413
 9.8596  33333.5  181.325
 10.0576  31378.8  176.59
 10.2556  30507.5  174.565
 10.4536  30360  173.739
 10.6516  30398.1  174.039
 10.8496  28238.2  167.164
 11.0476  27675.1  165.512
 11.2456  27487.4  165.481
 11.4436  27118.6  163.531
 11.6416  26334.6  161.515
 11.8396  24960.8  157.453
 12.0376  25017.9  157.267
 12.2356  24716.5  156.719
 12.4336  24532.5  155.679
 12.6316  24031.9  154.351
 12.8296  24453.4  155.336
 13.0276  24907.9  156.946
 13.2256  24790.6  156.953
 13.4236  24514.3  155.845
 13.6216  24697  156.442
 13.8196  24795.4  156.517
 14.0176  24185.8  154.856
 14.2156  23734.3  152.452
 14.4136  22427.9  149.574
 14.6116  22394  148.661
 14.8096  21754.9  146.51
 15.0076  20469.8  145.943
 15.2056  20371.3  141.364
 15.4036  19277.9  138.352
 15.6016  18971  136.323
 15.7996  18328  134.275
 15.9976  17754  135.114
 16.1956  17173.6  130.769
 16.3936  16710.1  128.168
 16.5916  16639.4  128.535
 16.7896  16526.1  128.15
 16.9876  16530.3  129.641
 17.1856  16124  126.39
 17.3836  15760.3  124.864
 17.5816  15322.4  123.603
 17.7796  15209  123.074
 17.9776  15234.4  123.983
 18.1756  15486.7  123.678
 18.3736  15323.1  123.544
 18.5716  14980.1  121.905
 18.7696  14796.1  120.722
 18.9676  14551  119.523
 19.1656  14383.3  119.398
 19.3636  14317.4  119.321
 19.5616  14294  119.399
 19.7596  14391.5  119.198
 19.9576  14744.9  120.712
 20.1556  14231.5  119.116
 20.3536  13783.9  116.603
 20.5516  13576.3  116.176
 20.7496  13368.2  115.223
 20.9476  13270.7  114.549
 21.1456  13586.9  116.236
 21.3436  13208.8  114.564
 21.5416  13032.4  113.791
 21.7396  12983.3  113.421
 21.9376  12913.5  112.88
 22.1356  12943.9  113.138
 22.3336  12904.2  113.256
 22.5316  12876.7  113.213
 22.7296  12805.5  112.26
 22.9276  12822.3  113.029
 23.1256  13187.4  114.093
 23.3236  12769.5  112.842
 23.5216  12748.8  112.406
 23.7196  12680.2  112.053
 23.9176  12571.2  111.315
 24.1156  12410.2  111.077
 24.3136  11993.5  109.987
 24.5116  12107.6  110.03
 24.7096  11879.2  108.803
 24.9076  11488.1  107.026
 25.1056  11276.4  106.497
 25.3036  11256.7  105.908
 25.5016  11285.1  106.08
 25.6996  11283.8  105.644
 25.8976  11162.8  105.518
 26.0956  11216.2  105.795
 26.2936  11085.2  104.813
 26.4916  11128.5  104.905
 26.6896  10796.1  103.618
 26.8876  10623.6  102.641
 27.0856  10781.7  103.455
 27.2836  10475.9  101.869
 27.4816  10507.3  101.955
 27.6796  10394.3  101.784
 27.8776  10325.8  101.301
 28.0756  10363.4  101.777
 28.2736  10350  101.291
 28.4716  10148.9  100.348
 28.6696  10110.2  100.006
 28.8676  9826.12  98.9305
 29.0656  9892.26  99.2465
 29.2636  9879.13  98.9703
 29.4616  9611.56  97.8013
 29.6596  9728.14  97.9565
 29.8576  9568.6  97.8366
 30.0556  9718.38  98.4809
 30.2536  9761.51  98.4854
 30.4516  9581.24  97.238
 30.6496  9762.89  97.878
 30.8476  9588.22  97.4409
 31.0456  9439.33  96.6423
 31.2436  9472.18  96.0771
 31.4416  9158.97  94.6433
 31.6396  9401.55  95.9383
 31.8376  9415.56  95.54
 32.0356  9333.55  95.6957
 32.2336  9081.64  93.7975
 32.4316  9144.68  94.5237
 32.6296  9098.2  94.1194
 32.8276  9093.3  93.8689
 33.0256  9019.53  93.5701
 33.2236  8945.44  93.3281
 33.4216  9146.31  94.0535
 33.6196  8945.86  93.3113
 33.8176  9049.1  94.0082
 34.0156  8857.59  92.6262
 34.2136  8895.26  92.8685
 34.4116  8749.88  92.2557
 34.6096  8725.52  92.0053
 34.8076  8644.22  91.9828
 35.0056  8691.79  91.9274
 35.2036  8696.06  92.1593
 35.4016  8530.64  91.2012
 35.5996  8548.21  91.3313
 35.7976  8486.38  91.2773
 35.9956  8539.7  91.206
 36.1936  8513.97  90.9391
 36.3916  8393.96  90.4705
 36.5896  8419.11  91.5774
 36.7876  8405.55  90.909
 36.9856  8264.15  90.1672
 37.1836  8324.26  89.5913
 37.3816  8364.83  90.1778
 37.5796  8221.87  91.1368
 37.7776  8071.52  88.6891
 37.9756  8302.28  89.8271
 38.1736  8349.83  90.2833
 38.3716  8073.83  89.053
 38.5696  8082.87  89.4706
 38.7676  7993.81  88.4824
 38.9656  8083.17  88.6093
 39.1636  7835.33  87.509
 39.3616  8045.17  88.5927
 39.5596  7878.41  88.5263
 39.7576  7905.1  88.043
 39.9556  8057.75  88.5301
 40.1536  8043.7  88.6607
 40.3516  8102.17  88.9899
 40.5496  8128.22  89.3921
 40.7476  8169.85  89.6307
 40.9456  8162.94  89.335
 41.1436  8051.71  88.4473
 41.3416  8042.01  88.7279
 41.5396  8028.03  88.4537
 41.7376  7986.19  88.4912
 41.9356  7901.37  87.882
 42.1336  7985.75  88.5019
 42.3316  7885.95  88.141
 42.5296  7888.68  87.67
 42.7276  7940.04  88.2
 42.9256  7833.35  87.4755
 43.1236  7805.97  87.4307
 43.3216  7853.44  87.4432
 43.5196  7658.65  86.4172
 43.7176  7741.36  87.275
 43.9156  7878.76  87.9535
 44.1136  7694.99  86.4713
 44.3116  7611.72  86.011
 44.5096  7700.97  86.8278
 44.7076  7618.58  86.2938
 44.9056  7506.6  85.5365
 45.1036  7565.17  85.4955
 45.3016  7409.7  85.1083
 45.4996  7415.06  85.0787
 45.6976  7178.42  83.8823
 45.8956  7423.05  85.1116
 46.0936  7427.72  85.145
 46.2916  7437.92  85.1815
 46.4896  7403.69  85.0154
 46.6876  7348.8  85.4102
 46.8856  7346.03  84.6523
 47.0836  7164.69  83.8541
 47.2816  7138.8  83.5748
 47.4796  7235.85  84.2558
 47.6776  7077.19  84.2585
 47.8756  7020.81  83.1117
 48.0736  7102.05  84.0458
 48.2716  6979.33  83.1313
 48.4696  7100.63  83.4279
 48.6676  7076.37  83.8832
 48.8656  7044.19  83.4249
 49.0636  7084.86  83.6101
 49.2616  6892.32  82.5047
 49.4596  6976.12  82.5725
 49.6576  6767.41  81.5361
 49.8556  6869.33  82.1774
 50.0536  6822.11  82.3369
 50.2516  6865.07  82.7283
 50.4496  6758.18  81.7365
 50.6476  6769.16  81.4944
 50.8456  6835.69  81.9816
 51.0436  6738.84  81.8318
 51.2416  6571.65  80.4852
 51.4396  6574.92  80.8872
 51.6376  6573.09  80.7143
 51.8356  6598.71  80.5055
 52.0336  6417.05  79.9014
 52.2316  6496.51  80.7442
 52.4296  6613.73  81.1601
 52.6276  6513.22  80.6572
 52.8256  6541.27  80.3895
 53.0236  6431.65  80.342
 53.2216  6438.55  80.4203
 53.4196  6318.55  79.5904
 53.6176  6301.72  79.9589
 53.8156  6359.49  79.9976
 54.0136  6417.57  80.5371
 54.2116  6367.86  79.8871
 54.4096  6293.28  79.4674
 54.6076  6235.43  79.4462
 54.8056  6222.69  79.1559
 55.0036  6304.06  80.0653
 55.2016  6274.84  79.428
 55.3996  6321.19  79.6842
 55.5976  6182.78  78.9978
 55.7956  6236.94  79.1545
 55.9936  6214.74  79.1525
 56.1916  6247.53  79.373
 56.3896  6248.22  79.3684
 56.5876  6115.56  79.0705
 56.7856  6265.82  79.5254
 56.9836  6065.98  78.027
 57.1816  6242.89  79.5394
 57.3796  6277.3  79.5496
 57.5776  6165.05  78.77
 57.7756  6154.41  79.3377
 57.9736  6253.86  79.6459
 58.1716  6258.07  79.9165
 58.3696  6069.4  78.442
 58.5676  6099.52  78.1147
 58.7656  6127.77  78.9724
 58.9636  6224.09  79.6296
 59.1616  6172.75  79.4226
 59.3596  6258.7  79.2353
 59.5576  6222.28  79.0617
 59.7556  6165.84  79.1249
 59.9536  6219.32  79.3647
 60.1516  6279.74  80.6148
 60.1996  0.0000000E+00  0.0000000E+00