File: docs/examples/opeando_xrd/IS17_D/Data/IS17_D/17_Da_f00149.xye
# /beamlines/bl04/projects/cycle2025-II/20250340211-lsimonelli/DATA/IS17_D/17_Da_f00149.xye : mythproc.py merge -s 0.006 -l 0.5 -f /beamlines/bl04/inhouse/ff/FlatField/ff_20Nov2024rod8mm60s_17keV.raw -b True -c true -o xye /beamlines/bl04/projects/cycle2025-II/20250340211-lsimonelli/DATA/IS17_D/17_Da_00149.dat
# IsMon = [6763656, 6773769, 6766836]  IsPos = [-1.4999, -2.4883, -3.4988]
# Wave = 0.4962  CalPath /beamlines/bl04/projects/cycle2025-II/20250340211-lsimonelli/DATA/Align/Si_Pos1_25keV_f00001.cal
# Date = 2025-09-25_11:05:08 Dt = 4.8000  Bin = 0.0060  <imon> = 6768087 +/- 4222 (Min/Max) 6763656 / 6773769
# icurr 251.3966  mocoIn 1.7152E-05  mocoOut 0.8042  i15 7.0872e+06  imon 6.76809e+06  i7 6.6667  iEMpd_timer 4.8000  iEMpd_1 3.3476E-08  iEMpd_2 7.8035E-08  iEMpd_3 1.7234E-08  iEMpd_4 4.7312E-08  iEMhp_timer 4.8000  iEMhp_1 4.9111E-06  iEMhp_2 -2.5454E-08  iEMhp_3 -2.3702E-08  iEMhp_4 -2.0222E-08
#      9776
 1.7416  70228.7  265.17
 1.9396  46497.5  216.039
 2.1376  32936.6  181.827
 2.3356  29260.2  171.018
 2.5336  27058.8  165.038
 2.7316  25444.9  160.091
 2.9296  24608.8  157.604
 3.1276  24061  155.406
 3.3256  23851  154.396
 3.5236  25731.2  160.131
 3.7216  23480.9  154.237
 3.9196  22949.2  151.711
 4.1176  23174.3  152.23
 4.3156  24286.6  155.999
 4.5136  26630.1  162.31
 4.7116  27659.1  166.576
 4.9096  26911.2  163.743
 5.1076  26646.1  163.526
 5.3056  27124.2  164.707
 5.5036  27042.1  164.331
 5.7016  27558.7  165.878
 5.8996  28362.7  167.477
 6.0976  28823.8  170.308
 6.2956  29317.6  171.065
 6.4936  29841.4  171.778
 6.6916  30069.9  173.443
 6.8896  30818.8  175.446
 7.0876  32132.7  179.882
 7.2856  31821.7  178.062
 7.4836  32499.8  179.34
 7.6816  33146.5  181.591
 7.8796  34501.3  185.231
 8.0776  36301.6  190.988
 8.2756  38250.4  194.649
 8.4736  38550.6  195.209
 8.6716  37917.2  194.219
 8.8696  37742  194.346
 9.0676  36976.3  191.712
 9.2656  36235.4  190.472
 9.4636  35819.7  187.767
 9.6616  34944.1  186.24
 9.8596  33482  181.721
 10.0576  31772.6  177.669
 10.2556  30587  174.784
 10.4536  29922.4  172.473
 10.6516  29118.1  170.338
 10.8496  28489.5  167.915
 11.0476  27486.2  164.944
 11.2456  27165.5  164.495
 11.4436  27399.4  164.377
 11.6416  26795.5  162.92
 11.8396  25225.2  158.292
 12.0376  25105.4  157.546
 12.2356  24525.1  156.096
 12.4336  24627.2  155.978
 12.6316  24331.5  155.318
 12.8296  24612.4  155.838
 13.0276  25036.7  157.349
 13.2256  25101.2  157.932
 13.4236  24763.9  156.633
 13.6216  24801  156.779
 13.8196  24648.9  156.053
 14.0176  24586.6  156.14
 14.2156  23848.1  152.819
 14.4136  22763.6  150.688
 14.6116  22296.8  148.336
 14.8096  21758  146.526
 15.0076  20715.4  146.808
 15.2056  20260.8  140.967
 15.4036  19162.7  137.919
 15.6016  19169.6  137.023
 15.7996  18472.5  134.801
 15.9976  17733.7  135.042
 16.1956  16982.5  130.058
 16.3936  16939.4  129.062
 16.5916  16629.5  128.508
 16.7896  16756.6  129.058
 16.9876  16525.9  129.62
 17.1856  16265  126.923
 17.3836  15853.5  125.214
 17.5816  15652.7  124.924
 17.7796  15322.9  123.529
 17.9776  15265.2  124.112
 18.1756  15263.7  122.784
 18.3736  15149.3  122.834
 18.5716  14846.1  121.359
 18.7696  14881.2  121.067
 18.9676  14583.8  119.663
 19.1656  14459.3  119.707
 19.3636  14381.5  119.585
 19.5616  14299.4  119.417
 19.7596  14334.6  118.976
 19.9576  14840.6  121.103
 20.1556  14451.1  120.027
 20.3536  13952.9  117.316
 20.5516  13628.9  116.393
 20.7496  13554.8  116.018
 20.9476  13263.8  114.527
 21.1456  13523.4  115.961
 21.3436  13161.3  114.356
 21.5416  13096.4  114.065
 21.7396  12992.4  113.467
 21.9376  13006.8  113.298
 22.1356  12978.6  113.277
 22.3336  12939.8  113.392
 22.5316  12924.6  113.417
 22.7296  12961.3  112.946
 22.9276  12987.1  113.743
 23.1256  13137.6  113.876
 23.3236  12831  113.129
 23.5216  12823.8  112.753
 23.7196  12588.9  111.653
 23.9176  12652.5  111.699
 24.1156  12473.5  111.378
 24.3136  12015.7  110.078
 24.5116  11939.5  109.258
 24.7096  11658.1  107.781
 24.9076  11537.5  107.259
 25.1056  11258.3  106.404
 25.3036  11358.3  106.372
 25.5016  11188.1  105.623
 25.6996  11384.7  106.12
 25.8976  11178.7  105.604
 26.0956  11327.5  106.321
 26.2936  11124.6  104.99
 26.4916  11245.2  105.454
 26.6896  10764.5  103.47
 26.8876  10879.3  103.875
 27.0856  10833.9  103.703
 27.2836  10593.9  102.492
 27.4816  10554.9  102.178
 27.6796  10444.8  102.031
 27.8776  10309.7  101.237
 28.0756  10406.9  101.98
 28.2736  10358.2  101.33
 28.4716  10158.9  100.402
 28.6696  10029.8  99.6006
 28.8676  10056.6  100.09
 29.0656  9881.65  99.2143
 29.2636  9940.4  99.279
 29.4616  9736.86  98.4279
 29.6596  10003.6  99.3253
 29.8576  9701.63  98.5049
 30.0556  9743.99  98.5982
 30.2536  9907.19  99.2071
 30.4516  9746.93  98.0888
 30.6496  9661.39  97.3821
 30.8476  9504.75  97.0333
 31.0456  9459.49  96.7636
 31.2436  9513.48  96.2991
 31.4416  9335.01  95.5352
 31.6396  9383.66  95.8395
 31.8376  9435.71  95.6465
 32.0356  9287.33  95.46
 32.2336  9288.06  94.862
 32.4316  9112.69  94.3198
 32.6296  9088.57  94.0625
 32.8276  9190.24  94.3681
 33.0256  9099.99  93.9869
 33.2236  9118.7  94.2349
 33.4216  9211.11  94.3856
 33.6196  8980.29  93.4836
 33.8176  8962.55  93.5631
 34.0156  8896.28  92.8273
 34.2136  8847.51  92.6238
 34.4116  8841.79  92.8553
 34.6096  8734.59  92.0569
 34.8076  8729.06  92.4323
 35.0056  8740.29  92.1834
 35.2036  8692.86  92.1474
 35.4016  8587.07  91.5006
 35.5996  8534.48  91.2559
 35.7976  8541.28  91.5761
 35.9956  8632.55  91.6956
 36.1936  8515.1  90.9421
 36.3916  8465.84  90.8131
 36.5896  8420.92  91.5973
 36.7876  8437.34  91.0712
 36.9856  8404.97  90.9235
 37.1836  8273.99  89.3123
 37.3816  8364.46  90.174
 37.5796  8293.08  91.5376
 37.7776  8217.45  89.4932
 37.9756  8121.64  88.858
 38.1736  8288.94  89.9599
 38.3716  8034.2  88.8452
 38.5696  8144.16  89.8096
 38.7676  7863.82  87.7499
 38.9656  8145.77  88.9459
 39.1636  7953.35  88.1586
 39.3616  8135.39  89.078
 39.5596  7859.54  88.4238
 39.7576  7977.43  88.4475
 39.9556  8085.94  88.6816
 40.1536  8036.9  88.6237
 40.3516  8165.63  89.336
 40.5496  8121.04  89.3383
 40.7476  8125.49  89.3801
 40.9456  8168.33  89.3636
 41.1436  8148.67  88.9835
 41.3416  8034.28  88.6579
 41.5396  8001.87  88.2385
 41.7376  7923.99  88.1478
 41.9356  7907.04  87.9114
 42.1336  7970.72  88.4231
 42.3316  7938.45  88.4315
 42.5296  8010.2  88.3411
 42.7276  7951.37  88.263
 42.9256  7959.16  88.1685
 43.1236  7854.83  87.7032
 43.3216  7877.87  87.5864
 43.5196  7713.89  86.7248
 43.7176  7867.99  87.9879
 43.9156  7630.14  86.5458
 44.1136  7631.16  86.1034
 44.3116  7700.95  86.5146
 44.5096  7672.47  86.6592
 44.7076  7636.41  86.387
 44.9056  7502.33  85.5248
 45.1036  7649.59  85.9835
 45.3016  7523.65  85.774
 45.4996  7435.58  85.2091
 45.6976  7301  84.6073
 45.8956  7444.78  85.2284
 46.0936  7595.54  86.0382
 46.2916  7430.25  85.127
 46.4896  7479.84  85.4469
 46.6876  7362.75  85.4864
 46.8856  7260.81  84.1559
 47.0836  7296.37  84.6275
 47.2816  7211.52  83.9955
 47.4796  7219.75  84.1532
 47.6776  7086.96  84.318
 47.8756  7137.79  83.7966
 48.0736  7177.77  84.4966
 48.2716  7026.68  83.4463
 48.4696  7146.55  83.7299
 48.6676  7139.27  84.2592
 48.8656  6951.2  82.8733
 49.0636  6976.09  82.971
 49.2616  6957.99  82.7824
 49.4596  6888.52  82.1768
 49.6576  6943  82.5965
 49.8556  7025.84  83.1083
 50.0536  6858.42  82.5555
 50.2516  6921.15  83.0703
 50.4496  6823.31  82.1235
 50.6476  6854.43  82.0048
 50.8456  6843.31  82.0275
 51.0436  6685.41  81.4994
 51.2416  6703.85  81.293
 51.4396  6508.69  80.4693
 51.6376  6684.92  81.3829
 51.8356  6672.31  80.943
 52.0336  6462.58  80.196
 52.2316  6606.94  81.4322
 52.4296  6541.14  80.7129
 52.6276  6542.97  80.8542
 52.8256  6544.23  80.423
 53.0236  6347.28  79.8106
 53.2216  6375.32  80.0206
 53.4196  6259.82  79.2138
 53.6176  6391.72  80.5179
 53.8156  6355.28  79.9643
 54.0136  6459.07  80.8015
 54.2116  6361.35  79.8528
 54.4096  6415.97  80.2281
 54.6076  6320.7  79.9912
 54.8056  6243.86  79.2914
 55.0036  6244.02  79.6842
 55.2016  6340.85  79.8483
 55.3996  6347.28  79.8486
 55.5976  6290.39  79.6808
 55.7956  6341.27  79.8152
 55.9936  6220.28  79.1864
 56.1916  6210.63  79.142
 56.3896  6325.33  79.8564
 56.5876  6148.95  79.282
 56.7856  6119.98  78.5821
 56.9836  6187.08  78.8064
 57.1816  6207.65  79.315
 57.3796  6194.08  79.0126
 57.5776  6227.95  79.1682
 57.7756  6078.33  78.8476
 57.9736  6148.83  78.9719
 58.1716  6109.91  78.9691
 58.3696  6095.15  78.6007
 58.5676  6177.4  78.6011
 58.7656  6249.04  79.7476
 58.9636  6131.18  79.0258
 59.1616  6094.87  78.9166
 59.3596  6288.3  79.4299
 59.5576  6233.51  79.1411
 59.7556  6215.37  79.4502
 59.9536  6302.56  79.9022
 60.1516  6364.14  81.163
 60.1996  0.0000000E+00  0.0000000E+00