File: docs/examples/opeando_xrd/IS17_D/Data/IS17_D/17_Db_f00111.xye
# /beamlines/bl04/projects/cycle2025-II/20250340211-lsimonelli/DATA/IS17_D/17_Db_f00111.xye : mythproc.py merge -s 0.006 -l 0.5 -f /beamlines/bl04/inhouse/ff/FlatField/ff_20Nov2024rod8mm60s_17keV.raw -b True -c true -o xye /beamlines/bl04/projects/cycle2025-II/20250340211-lsimonelli/DATA/IS17_D/17_Db_00111.dat
# IsMon = [6786777, 6786691, 6786657]  IsPos = [-1.4999, -2.4884, -3.4989]
# Wave = 0.4962  CalPath /beamlines/bl04/projects/cycle2025-II/20250340211-lsimonelli/DATA/Align/Si_Pos1_25keV_f00001.cal
# Date = 2025-09-25_00:38:59 Dt = 4.8000  Bin = 0.0060  <imon> = 6786708 +/- 50 (Min/Max) 6786657 / 6786777
# icurr 252.8830  mocoIn 1.7246E-05  mocoOut 0.8098  i15 7.10888e+06  imon 6.78671e+06  i7 4.6667  iEMpd_timer 4.8000  iEMpd_1 3.5115E-08  iEMpd_2 7.9468E-08  iEMpd_3 1.7055E-08  iEMpd_4 4.7126E-08  iEMhp_timer 4.8000  iEMhp_1 4.9402E-06  iEMhp_2 -2.4656E-08  iEMhp_3 -2.4196E-08  iEMhp_4 -2.0466E-08
#      9776
 1.7416  71834  268.094
 1.9396  49869.2  223.67
 2.1376  37436.3  193.785
 2.3356  33589.4  183.173
 2.5336  31686.2  178.534
 2.7316  29279.9  171.745
 2.9296  27943.5  167.95
 3.1276  27414.4  165.866
 3.3256  26405.6  162.438
 3.5236  27676.1  166.087
 3.7216  25253.4  159.93
 3.9196  24468.5  156.627
 4.1176  24479  156.444
 4.3156  25425.1  159.607
 4.5136  27607.1  165.274
 4.7116  28623.8  169.444
 4.9096  28051  167.168
 5.1076  27818.8  167.068
 5.3056  27562.3  166.011
 5.5036  27670.7  166.249
 5.7016  27798.8  166.588
 5.8996  28434.5  167.707
 6.0976  29219.1  171.434
 6.2956  29295.3  170.998
 6.4936  30244.5  172.92
 6.6916  30646.3  175.081
 6.8896  31510.7  177.373
 7.0876  32388.3  180.591
 7.2856  32383.2  179.61
 7.4836  32916.4  180.415
 7.6816  33691.6  183.047
 7.8796  34411.8  185.015
 8.0776  35754  189.578
 8.2756  37800.5  193.527
 8.4736  38072.4  194.025
 8.6716  37596.1  193.441
 8.8696  38249.5  195.62
 9.0676  37407.9  192.776
 9.2656  36409.6  190.891
 9.4636  35602  187.198
 9.6616  34674.7  185.481
 9.8596  34146.6  183.508
 10.0576  31937.4  178.149
 10.2556  30994.3  175.942
 10.4536  29983.2  172.645
 10.6516  29014.1  170.047
 10.8496  27769.9  165.773
 11.0476  27008.7  163.496
 11.2456  26097.5  161.254
 11.4436  26397.7  161.349
 11.6416  28015  166.57
 11.8396  25656.5  159.607
 12.0376  24841.1  156.693
 12.2356  24470.2  155.941
 12.4336  24691.2  156.185
 12.6316  24384.4  155.477
 12.8296  24527.7  155.542
 13.0276  24691.9  156.273
 13.2256  25349.8  158.702
 13.4236  25101.4  157.697
 13.6216  25249.3  158.159
 13.8196  27274.4  163.858
 14.0176  24448.5  155.613
 14.2156  23982.4  153.229
 14.4136  22885.6  151.085
 14.6116  22706.8  149.678
 14.8096  21681.4  146.245
 15.0076  20856.3  147.379
 15.2056  19803.1  139.388
 15.4036  18935.6  137.127
 15.6016  18436.9  134.401
 15.7996  17951.6  132.896
 15.9976  17966.5  136.49
 16.1956  17321.8  131.283
 16.3936  16997.8  129.24
 16.5916  16814.4  129.191
 16.7896  16662.5  128.666
 16.9876  16557.3  129.734
 17.1856  16438.4  127.617
 17.3836  16144.5  126.381
 17.5816  15447.1  124.104
 17.7796  15263.2  123.287
 17.9776  14859.7  122.432
 18.1756  14955.4  121.564
 18.3736  14583.4  120.524
 18.5716  14233.4  118.821
 18.7696  14461.1  119.338
 18.9676  14454  119.106
 19.1656  14009.9  117.85
 19.3636  14037.9  118.158
 19.5616  14029.8  118.293
 19.7596  14266.5  118.68
 19.9576  14287.4  118.818
 20.1556  15098.4  122.685
 20.3536  14372.4  119.065
 20.5516  13803  117.131
 20.7496  13394.2  115.318
 20.9476  13436  115.258
 21.1456  13288.6  114.952
 21.3436  13179.6  114.433
 21.5416  13062.5  113.934
 21.7396  12986  113.439
 21.9376  12802.2  112.408
 22.1356  12860.6  112.785
 22.3336  12609.8  111.969
 22.5316  12636.1  112.179
 22.7296  12713.7  111.88
 22.9276  12418.8  111.244
 23.1256  12706.3  111.999
 23.3236  13122.8  114.402
 23.5216  12960.4  113.323
 23.7196  12911.9  113.064
 23.9176  12885.3  112.686
 24.1156  12463.6  111.289
 24.3136  12284.8  111.312
 24.5116  12252.4  110.669
 24.7096  11783  108.35
 24.9076  11717.3  108.079
 25.1056  11394.3  107.045
 25.3036  11161  105.444
 25.5016  11172.4  105.546
 25.6996  11259.7  105.538
 25.8976  11297.2  106.15
 26.0956  11089.2  105.181
 26.2936  11128.6  105.023
 26.4916  11443.5  106.338
 26.6896  10973.1  104.458
 26.8876  10888.5  103.907
 27.0856  10745.1  103.284
 27.2836  10673.2  102.823
 27.4816  10466  101.755
 27.6796  10458.8  102.092
 27.8776  10622.1  102.735
 28.0756  10206.6  100.999
 28.2736  10216  100.629
 28.4716  10148.8  100.347
 28.6696  10063.8  99.773
 28.8676  10043.3  100.027
 29.0656  9840.69  98.9854
 29.2636  9873.77  98.9479
 29.4616  9554.75  97.5193
 29.6596  9566.45  97.147
 29.8576  9460.45  97.2879
 30.0556  9391.01  96.8052
 30.2536  9490.06  97.1109
 30.4516  9711  97.8723
 30.6496  9800.34  98.0471
 30.8476  9604.7  97.5165
 31.0456  9747.57  98.1884
 31.2436  9732  97.3734
 31.4416  9431.94  96.0442
 31.6396  9567.84  96.7689
 31.8376  9516.18  96.0173
 32.0356  9419.53  96.1245
 32.2336  9490.02  95.875
 32.4316  9026.41  93.9097
 32.6296  9029.35  93.7562
 32.8276  9065.87  93.7365
 33.0256  9067.16  93.8083
 33.2236  9108.84  94.1652
 33.4216  8975.31  93.1535
 33.6196  9038.55  93.7802
 33.8176  9021.52  93.8646
 34.0156  8933.79  93.0295
 34.2136  8925.34  93.0154
 34.4116  8662  91.7941
 34.6096  8758.39  92.1802
 34.8076  8572.76  91.6179
 35.0056  8659.09  91.735
 35.2036  8916.64  93.3241
 35.4016  8592.49  91.5239
 35.5996  8595.82  91.5816
 35.7976  8660.94  92.1897
 35.9956  8749.38  92.3157
 36.1936  8556.53  91.1367
 36.3916  8443.59  90.7342
 36.5896  8370.13  91.3303
 36.7876  8190.85  89.7417
 36.9856  8246.27  90.0713
 37.1836  8110.58  88.4405
 37.3816  8233.45  89.4733
 37.5796  8236.39  91.2228
 37.7776  8289.65  89.8707
 37.9756  8332  89.9815
 38.1736  8250.71  89.7295
 38.3716  8256.92  90.0479
 38.5696  8124.81  89.6959
 38.7676  8041.25  88.7459
 38.9656  8279.92  89.6704
 39.1636  8156.58  89.2828
 39.3616  8165.43  89.2578
 39.5596  8013.44  89.2711
 39.7576  7992.53  88.5377
 39.9556  8146  89.0145
 40.1536  8137.51  89.1673
 40.3516  8103.01  88.9891
 40.5496  8084.99  89.1538
 40.7476  8098.67  89.2357
 40.9456  8177.98  89.4183
 41.1436  8164.53  89.0621
 41.3416  8063.76  88.8487
 41.5396  8088.2  88.7863
 41.7376  8078.86  89.0019
 41.9356  8036.52  88.6248
 42.1336  8146.91  89.3775
 42.3316  8015.17  88.8553
 42.5296  8052.92  88.5732
 42.7276  7996.94  88.5139
 42.9256  7964.5  88.2058
 43.1236  7978.42  88.3857
 43.3216  7943.13  87.9305
 43.5196  7886.38  87.6828
 43.7176  7969.56  88.543
 43.9156  7744.33  87.2059
 44.1136  7733.99  86.6953
 44.3116  7773.61  86.9258
 44.5096  7601.12  86.2716
 44.7076  7814.58  87.4018
 44.9056  7945.25  87.993
 45.1036  7845.27  87.0481
 45.3016  7735.2  86.9499
 45.4996  7658.37  86.4577
 45.6976  7645.62  86.566
 45.8956  7631.41  86.2977
 46.0936  7784.61  87.1595
 46.2916  7798.33  87.2164
 46.4896  7675.8  86.5464
 46.6876  7633.7  87.0455
 46.8856  7620.72  86.223
 47.0836  7667.73  86.7355
 47.2816  7550.42  85.9565
 47.4796  7604.62  86.371
 47.6776  7440.86  86.4038
 47.8756  7608.32  86.5094
 48.0736  7534.28  86.5562
 48.2716  7418.56  85.7066
 48.4696  7545.75  85.9995
 48.6676  7445.05  86.0405
 48.8656  7455.26  85.8276
 49.0636  7595.75  86.5662
 49.2616  7426.05  85.6376
 49.4596  7494.32  85.5581
 49.6576  7439.53  85.5033
 49.8556  7477.43  85.7371
 50.0536  7423.42  85.8827
 50.2516  7526.52  86.6176
 50.4496  7412.82  85.604
 50.6476  7464.95  85.5722
 50.8456  7374.4  85.1243
 51.0436  7181.9  84.4836
 51.2416  7172.88  84.0985
 51.4396  7056.32  83.8212
 51.6376  7135.83  84.1105
 51.8356  7076.98  83.3803
 52.0336  7151.06  84.3185
 52.2316  7185.3  84.9
 52.4296  7072.77  83.9292
 52.6276  7004.63  83.6348
 52.8256  7092.64  83.6993
 53.0236  7276.75  85.4487
 53.2216  7205.9  85.0699
 53.4196  7075.37  84.1752
 53.6176  7083.66  84.7683
 53.8156  7022.78  84.064
 54.0136  6728.86  82.4512
 54.2116  6892.46  83.0743
 54.4096  6798  82.5823
 54.6076  6742.45  82.5958
 54.8056  6646.41  81.7765
 55.0036  6646.43  82.1818
 55.2016  6688.67  82.0189
 55.3996  6532.32  80.9818
 55.5976  6509.42  81.0449
 55.7956  6629.06  81.5874
 55.9936  6649.49  81.8497
 56.1916  6595.83  81.5516
 56.3896  6434.87  80.5262
 56.5876  6362.34  80.6233
 56.7856  6336.31  79.9546
 56.9836  6468.07  80.5477
 57.1816  6516.6  81.1402
 57.3796  6376.23  80.1582
 57.5776  6537.31  81.0206
 57.7756  6297.11  80.238
 57.9736  6281.98  79.7884
 58.1716  6234.85  79.7696
 58.3696  6055.34  78.3663
 58.5676  6186.27  78.6696
 58.7656  6115.43  78.9042
 58.9636  6086.07  78.7468
 59.1616  6104.93  79.0014
 59.3596  6110.17  78.2884
 59.5576  6198.56  78.9119
 59.7556  5882.38  77.2858
 59.9536  6087.18  78.5181
 60.1516  5971.66  78.6136
 60.1996  6052.44  82.2928