File: docs/examples/opeando_xrd/IS17_D/Data/IS17_D/17_Da_f00135.xye
# /beamlines/bl04/projects/cycle2025-II/20250340211-lsimonelli/DATA/IS17_D/17_Da_f00135.xye : mythproc.py merge -s 0.006 -l 0.5 -f /beamlines/bl04/inhouse/ff/FlatField/ff_20Nov2024rod8mm60s_17keV.raw -b True -c true -o xye /beamlines/bl04/projects/cycle2025-II/20250340211-lsimonelli/DATA/IS17_D/17_Da_00135.dat
# IsMon = [6755686, 6755313, 6756583]  IsPos = [-1.4999, -2.4884, -3.4988]
# Wave = 0.4962  CalPath /beamlines/bl04/projects/cycle2025-II/20250340211-lsimonelli/DATA/Align/Si_Pos1_25keV_f00001.cal
# Date = 2025-09-25_07:10:50 Dt = 4.8000  Bin = 0.0060  <imon> = 6755861 +/- 533 (Min/Max) 6755313 / 6756583
# icurr 250.0500  mocoIn 1.7064E-05  mocoOut 0.8007  i15 7.0711e+06  imon 6.75586e+06  i7 8.0000  iEMpd_timer 4.8000  iEMpd_1 3.3597E-08  iEMpd_2 7.8590E-08  iEMpd_3 1.8345E-08  iEMpd_4 4.8730E-08  iEMhp_timer 4.8000  iEMhp_1 4.8846E-06  iEMhp_2 -2.5448E-08  iEMhp_3 -2.3449E-08  iEMhp_4 -2.1633E-08
#      9776
 1.7416  69480.9  263.671
 1.9396  45393.2  213.392
 2.1376  32244.6  179.85
 2.3356  28571  168.939
 2.5336  27046.8  164.95
 2.7316  25019  158.757
 2.9296  23997.5  155.647
 3.1276  23384.5  153.198
 3.3256  23276.5  152.52
 3.5236  25047.5  158.02
 3.7216  22749.3  151.815
 3.9196  22527.7  150.314
 4.1176  22370  149.555
 4.3156  23525.4  153.53
 4.5136  26201.1  161.015
 4.7116  27119.8  164.944
 4.9096  26507.5  162.513
 5.1076  25989.6  161.486
 5.3056  26520.1  162.857
 5.5036  26365.1  162.277
 5.7016  26923.1  163.951
 5.8996  27491  164.892
 6.0976  28003.8  167.852
 6.2956  28611.5  169
 6.4936  29227  170.005
 6.6916  29676.6  172.304
 6.8896  30455.6  174.41
 7.0876  31527.7  178.179
 7.2856  31476.9  177.095
 7.4836  32002.5  177.902
 7.6816  32801.7  180.64
 7.8796  34306.2  184.733
 8.0776  36200.7  190.756
 8.2756  38011.8  194.059
 8.4736  38337.9  194.695
 8.6716  37851.9  194.1
 8.8696  38044.8  195.068
 9.0676  37430.8  192.842
 9.2656  35784.3  189.245
 9.4636  35568.9  187.077
 9.6616  34724.2  185.612
 9.8596  33487.4  181.749
 10.0576  31589.3  177.188
 10.2556  30666.7  175.024
 10.4536  31317.7  176.461
 10.6516  31715.5  177.793
 10.8496  28239.9  167.161
 11.0476  27918.8  166.237
 11.2456  28311.4  167.953
 11.4436  27889.6  165.844
 11.6416  26520.9  162.084
 11.8396  25301.1  158.52
 12.0376  24805.2  156.597
 12.2356  24850.4  157.15
 12.4336  24672.4  156.125
 12.6316  24084.2  154.517
 12.8296  24476.4  155.409
 13.0276  24966.4  157.136
 13.2256  24696.9  156.654
 13.4236  24658.7  156.298
 13.6216  24509.7  155.843
 13.8196  24843.9  156.669
 14.0176  24171.8  154.821
 14.2156  23587.8  151.984
 14.4136  22584.5  150.084
 14.6116  22219.4  148.08
 14.8096  21494.3  145.629
 15.0076  20388.8  145.645
 15.2056  20183.3  140.719
 15.4036  18993.9  137.338
 15.6016  18860.3  135.931
 15.7996  18061.9  133.296
 15.9976  17422.6  133.865
 16.1956  17146.9  130.656
 16.3936  16795.3  128.482
 16.5916  16479.8  127.902
 16.7896  16447.1  127.837
 16.9876  16427  129.228
 17.1856  16049.3  126.107
 17.3836  15541.6  123.989
 17.5816  15155.2  122.927
 17.7796  15126.6  122.747
 17.9776  15170.6  123.718
 18.1756  15540  123.896
 18.3736  15551.7  124.47
 18.5716  14680.6  120.68
 18.7696  14807.8  120.769
 18.9676  14316.1  118.552
 19.1656  14401.5  119.467
 19.3636  14193.4  118.81
 19.5616  14146.4  118.782
 19.7596  14316.1  118.887
 19.9576  14844  121.122
 20.1556  14074.3  118.459
 20.3536  13819.2  116.754
 20.5516  13444  115.605
 20.7496  13281.2  114.834
 20.9476  13338.7  114.843
 21.1456  13396  115.418
 21.3436  12968.5  113.515
 21.5416  12943.9  113.407
 21.7396  12835.8  112.778
 21.9376  12881.2  112.742
 22.1356  12984.8  113.322
 22.3336  12904.7  113.271
 22.5316  12753  112.686
 22.7296  12773.3  112.137
 22.9276  12780.3  112.846
 23.1256  13010.6  113.325
 23.3236  12781.6  112.881
 23.5216  12738.8  112.351
 23.7196  12350.2  110.568
 23.9176  12429.2  110.677
 24.1156  12372.1  110.899
 24.3136  11961.6  109.837
 24.5116  11996.5  109.524
 24.7096  11770  108.304
 24.9076  11469.5  106.939
 25.1056  11317.5  106.694
 25.3036  11211.4  105.698
 25.5016  11414.6  106.689
 25.6996  11225.3  105.374
 25.8976  11302.4  106.172
 26.0956  11177  105.607
 26.2936  11155.6  105.15
 26.4916  11053.9  104.552
 26.6896  10790.7  103.595
 26.8876  10735.1  103.178
 27.0856  10680.4  102.968
 27.2836  10580.4  102.373
 27.4816  10445.9  101.652
 27.6796  10347.2  101.552
 27.8776  10398.5  101.663
 28.0756  10363.5  101.778
 28.2736  10244.4  100.774
 28.4716  10022.9  99.7205
 28.6696  10087  99.8886
 28.8676  9896.23  99.2862
 29.0656  9824.99  98.9112
 29.2636  9758.89  98.3696
 29.4616  9937.38  99.4519
 29.6596  9795.96  98.3041
 29.8576  9732.2  98.6753
 30.0556  9782.42  98.8016
 30.2536  9881.14  99.0882
 30.4516  9583.37  97.2391
 30.6496  9737.9  97.7441
 30.8476  9526.68  97.1229
 31.0456  9360.81  96.2287
 31.2436  9459.6  96.0052
 31.4416  9333.29  95.5406
 31.6396  9450.5  96.189
 31.8376  9384.78  95.396
 32.0356  9314.06  95.5979
 32.2336  9022.61  93.4895
 32.4316  9086.13  94.2251
 32.6296  8977.47  93.499
 32.8276  9194.96  94.3889
 33.0256  9065.64  93.8042
 33.2236  8949.27  93.3456
 33.4216  9078.9  93.7076
 33.6196  9030.54  93.756
 33.8176  8881.71  93.1452
 34.0156  8855.24  92.6152
 34.2136  8864.06  92.6966
 34.4116  8675.33  91.8649
 34.6096  8768.35  92.2325
 34.8076  8648.95  92.0069
 35.0056  8634.96  91.6274
 35.2036  8661.65  91.9788
 35.4016  8568.92  91.4094
 35.5996  8511.98  91.1399
 35.7976  8507.21  91.3906
 35.9956  8522.38  91.1176
 36.1936  8515.61  90.9401
 36.3916  8404.77  90.531
 36.5896  8369.14  91.3073
 36.7876  8303.01  90.3537
 36.9856  8258.12  90.1404
 37.1836  8208.26  88.9707
 37.3816  8339.23  90.0446
 37.5796  8112.97  90.5213
 37.7776  8135.34  89.0301
 37.9756  8192.94  89.2246
 38.1736  8280.24  89.8985
 38.3716  8052.43  88.9256
 38.5696  8074.06  89.4265
 38.7676  7893.24  87.9276
 38.9656  7971.75  87.999
 39.1636  7798.93  87.2951
 39.3616  8014.34  88.4317
 39.5596  7906.44  88.6826
 39.7576  7872.16  87.8549
 39.9556  8025.62  88.3542
 40.1536  8054.47  88.7106
 40.3516  8135.9  89.1717
 40.5496  8061.54  89.0252
 40.7476  8113.29  89.3144
 40.9456  8246.82  89.7897
 41.1436  8063.5  88.5064
 41.3416  7999.63  88.4967
 41.5396  7865.42  87.5551
 41.7376  8024.77  88.7061
 41.9356  7923.22  88.0021
 42.1336  7993.58  88.5413
 42.3316  7845.03  87.9137
 42.5296  7864.44  87.5342
 42.7276  7899.32  87.9735
 42.9256  7872.02  87.6879
 43.1236  7957.59  88.2752
 43.3216  7875.53  87.5689
 43.5196  7764.59  87.0128
 43.7176  7652.08  86.7707
 43.9156  7660.7  86.733
 44.1136  7632.14  86.1232
 44.3116  7688.92  86.4548
 44.5096  7622.38  86.3896
 44.7076  7568.45  86.0096
 44.9056  7598.23  86.0486
 45.1036  7507.94  85.164
 45.3016  7379.81  84.9314
 45.4996  7383.58  84.8869
 45.6976  7252.31  84.3046
 45.8956  7516.36  85.6478
 46.0936  7435.06  85.184
 46.2916  7407.91  85.0107
 46.4896  7411.14  85.0621
 46.6876  7327.42  85.2814
 46.8856  7273.34  84.2211
 47.0836  7225.25  84.2017
 47.2816  7097.86  83.3389
 47.4796  7171.19  83.8751
 47.6776  7001.01  83.8115
 47.8756  7101.46  83.5802
 48.0736  7105.45  84.056
 48.2716  7029.06  83.426
 48.4696  7000.89  82.8567
 48.6676  7027.62  83.5918
 48.8656  6993.59  83.1265
 49.0636  7101.83  83.7122
 49.2616  6888.88  82.4802
 49.4596  7019.05  82.8174
 49.6576  6908.76  82.3936
 49.8556  6896.43  82.3373
 50.0536  6891.57  82.7549
 50.2516  6874.39  82.7831
 50.4496  6795.09  81.963
 50.6476  6861.77  82.0467
 50.8456  6780.89  81.6542
 51.0436  6594.38  80.9553
 51.2416  6722.33  81.4106
 51.4396  6556.3  80.7919
 51.6376  6610.65  80.9553
 51.8356  6600.31  80.5263
 52.0336  6559.02  80.774
 52.2316  6582.65  81.2704
 52.4296  6552.93  80.7662
 52.6276  6513.21  80.6486
 52.8256  6564.26  80.5118
 53.0236  6494.45  80.7349
 53.2216  6398.67  80.1716
 53.4196  6316.64  79.5812
 53.6176  6308.44  80.0011
 53.8156  6348.77  79.9292
 54.0136  6356.32  80.1536
 54.2116  6457.96  80.4504
 54.4096  6363.74  79.911
 54.6076  6333.66  80.064
 54.8056  6265.45  79.4269
 55.0036  6282.68  79.9263
 55.2016  6266.92  79.3721
 55.3996  6308.93  79.6102
 55.5976  6231.47  79.3098
 55.7956  6356.01  79.9098
 55.9936  6189.72  78.9899
 56.1916  6299.53  79.7005
 56.3896  6244.63  79.3498
 56.5876  6110.33  79.0419
 56.7856  6218.07  79.2141
 56.9836  6171.05  78.6975
 57.1816  6101  78.6289
 57.3796  6158.18  78.7968
 57.5776  6200.44  78.9948
 57.7756  5999.22  78.3309
 57.9736  6166.85  79.0932
 58.1716  6177.96  79.4017
 58.3696  6133.66  78.8718
 58.5676  6217.77  78.8843
 58.7656  6227.14  79.6213
 58.9636  6242.43  79.7516
 59.1616  6136.61  79.1941
 59.3596  6257.54  79.2236
 59.5576  6095.34  78.2476
 59.7556  6265.75  79.7599
 59.9536  6212.85  79.32
 60.1516  6109.14  79.5088
 60.1996  0.0000000E+00  0.0000000E+00