File: docs/examples/opeando_xrd/IS17_D/Data/IS17_D/17_Db_f00092.xye
# /beamlines/bl04/projects/cycle2025-II/20250340211-lsimonelli/DATA/IS17_D/17_Db_f00092.xye : mythproc.py merge -s 0.006 -l 0.5 -f /beamlines/bl04/inhouse/ff/FlatField/ff_20Nov2024rod8mm60s_17keV.raw -b True -c true -o xye /beamlines/bl04/projects/cycle2025-II/20250340211-lsimonelli/DATA/IS17_D/17_Db_00092.dat
# IsMon = [6782937, 6779903, 6780978]  IsPos = [-1.5000, -2.4885, -3.4986]
# Wave = 0.4962  CalPath /beamlines/bl04/projects/cycle2025-II/20250340211-lsimonelli/DATA/Align/Si_Pos1_25keV_f00001.cal
# Date = 2025-09-24_19:21:00 Dt = 4.8000  Bin = 0.0060  <imon> = 6781273 +/- 1256 (Min/Max) 6779903 / 6782937
# icurr 252.2988  mocoIn 1.7209E-05  mocoOut 0.8071  i15 7.10581e+06  imon 6.78127e+06  i7 6.6667  iEMpd_timer 4.8000  iEMpd_1 3.4943E-08  iEMpd_2 7.7290E-08  iEMpd_3 1.7296E-08  iEMpd_4 4.7240E-08  iEMhp_timer 4.8000  iEMhp_1 4.9271E-06  iEMhp_2 -2.6164E-08  iEMhp_3 -2.4737E-08  iEMhp_4 -2.0251E-08
#      9776
 1.7416  70202.5  265.001
 1.9396  48681.2  220.96
 2.1376  35545.3  188.805
 2.3356  32034.2  178.861
 2.5336  29759.6  173.001
 2.7316  26976.4  164.849
 2.9296  26077.5  162.23
 3.1276  25375.2  159.569
 3.3256  24745.4  157.247
 3.5236  26554.6  162.836
 3.7216  24223.2  156.64
 3.9196  23587.1  153.768
 4.1176  23799.1  154.246
 4.3156  24664  157.203
 4.5136  26945.1  163.284
 4.7116  28105.1  167.896
 4.9096  27391.5  165.19
 5.1076  27226.1  165.263
 5.3056  27288.9  165.075
 5.5036  26830.8  163.721
 5.7016  27679.7  166.238
 5.8996  28103.9  166.73
 6.0976  28992.3  170.764
 6.2956  28902.9  169.852
 6.4936  29583.7  171.035
 6.6916  29959.6  173.107
 6.8896  30505.7  174.528
 7.0876  31927.6  179.205
 7.2856  31454  177.004
 7.4836  31992.3  177.86
 7.6816  32564.5  179.955
 7.8796  33376.2  182.223
 8.0776  34493.5  186.216
 8.2756  36516.3  190.218
 8.4736  36987.3  191.253
 8.6716  36089.1  189.543
 8.8696  37345.9  193.287
 9.0676  36336.8  189.986
 9.2656  35138.7  187.52
 9.4636  34151.4  183.339
 9.6616  33537.8  182.41
 9.8596  32770.5  179.765
 10.0576  30549.5  174.239
 10.2556  29833.9  172.618
 10.4536  29133.1  170.169
 10.6516  28767.7  169.322
 10.8496  27572.9  165.177
 11.0476  26573.7  162.129
 11.2456  25963.9  160.844
 11.4436  26291.1  161.024
 11.6416  26162.4  160.968
 11.8396  24701.2  156.604
 12.0376  24132.7  154.43
 12.2356  23713.4  153.538
 12.4336  23566.8  152.586
 12.6316  23822.4  153.654
 12.8296  23723.2  152.957
 13.0276  24011.3  154.101
 13.2256  24308  155.42
 13.4236  24002.5  154.208
 13.6216  24569.4  156.004
 13.8196  26750.3  162.258
 14.0176  23491.8  152.637
 14.2156  23179.3  150.639
 14.4136  22071.1  148.373
 14.6116  21589.7  145.952
 14.8096  21095.3  144.255
 15.0076  20070.4  144.577
 15.2056  19347.8  137.783
 15.4036  18377.2  135.11
 15.6016  18013.9  132.858
 15.7996  17433.4  130.966
 15.9976  17231.2  133.079
 16.1956  16935.9  129.789
 16.3936  16633.8  127.841
 16.5916  16390.3  127.546
 16.7896  16300.5  127.254
 16.9876  16108.2  127.949
 17.1856  15798.2  125.114
 17.3836  15620.6  124.312
 17.5816  15215.7  123.156
 17.7796  15123.1  122.724
 17.9776  14737.1  121.92
 18.1756  14748  120.72
 18.3736  14624  120.692
 18.5716  14490  119.886
 18.7696  14475.6  119.4
 18.9676  14244.6  118.23
 19.1656  13838.2  117.122
 19.3636  13946.8  117.779
 19.5616  13713.9  116.955
 19.7596  14045.3  117.755
 19.9576  14183.9  118.38
 20.1556  14093.2  118.535
 20.3536  13541.6  115.579
 20.5516  13389  115.36
 20.7496  13067.3  113.818
 20.9476  13007.7  113.396
 21.1456  12868.1  113.122
 21.3436  12760.6  112.598
 21.5416  12726.7  112.46
 21.7396  12608.6  111.778
 21.9376  12464.6  110.914
 22.1356  12616.9  111.739
 22.3336  12234.1  110.277
 22.5316  12276  110.57
 22.7296  12273.9  109.941
 22.9276  12156.8  110.069
 23.1256  12314.2  110.266
 23.3236  12606.4  112.123
 23.5216  12375.6  110.72
 23.7196  12374.8  110.887
 23.9176  12475.5  110.879
 24.1156  12258.5  110.368
 24.3136  11968  109.858
 24.5116  11913.6  109.131
 24.7096  11596.1  107.485
 24.9076  11488.8  107.009
 25.1056  11179.7  105.758
 25.3036  11004.4  104.708
 25.5016  10916.8  104.324
 25.6996  10943.7  104.042
 25.8976  11062  105.026
 26.0956  10837.4  103.98
 26.2936  10776.8  103.347
 26.4916  10975.2  104.151
 26.6896  10736.2  103.317
 26.8876  10546.4  102.258
 27.0856  10457.9  101.851
 27.2836  10284.1  101.089
 27.4816  10050.3  99.7143
 27.6796  10162.8  100.632
 27.8776  10375.9  101.531
 28.0756  9934.01  99.6431
 28.2736  9961.41  99.3567
 28.4716  9777.82  98.4991
 28.6696  9801.36  98.462
 28.8676  9732.79  98.4674
 29.0656  9642.19  97.977
 29.2636  9690.83  97.9382
 29.4616  9357.42  96.5126
 29.6596  9332.99  95.9591
 29.8576  9223.78  96.0703
 30.0556  9155.46  95.5872
 30.2536  9314.78  96.2173
 30.4516  9473.12  96.6479
 30.6496  9602.18  97.0437
 30.8476  9383.63  96.3765
 31.0456  9374.4  96.2892
 31.2436  9457.56  95.978
 31.4416  9164.2  94.6667
 31.6396  9264.79  95.2298
 31.8376  9368.68  95.2731
 32.0356  9190.85  94.9369
 32.2336  9183.13  94.3122
 32.4316  8822.22  92.8428
 32.6296  8897.69  93.0064
 32.8276  8949.71  93.1316
 33.0256  8745.76  92.1303
 33.2236  8868.1  92.9055
 33.4216  8732.09  91.8866
 33.6196  8739.74  92.2227
 33.8176  8777.99  92.5828
 34.0156  8765.01  92.1491
 34.2136  8781.33  92.2516
 34.4116  8430.92  90.5657
 34.6096  8488.04  90.7505
 34.8076  8350.1  90.4174
 35.0056  8424.15  90.4846
 35.2036  8704.75  92.206
 35.4016  8294.45  89.9276
 35.5996  8316.21  90.0751
 35.7976  8262.82  90.0625
 35.9956  8520.95  91.0935
 36.1936  8405.37  90.3304
 36.3916  8259.81  89.7425
 36.5896  8220.42  90.977
 36.7876  8025.31  88.8389
 36.9856  7921.71  88.2833
 37.1836  8009.66  87.8923
 37.3816  7949.51  87.9193
 37.5796  8011.11  89.9682
 37.7776  8012.65  88.3412
 37.9756  8043.64  88.3988
 38.1736  8112.52  88.9742
 38.3716  7943.85  88.3069
 38.5696  7938.31  88.6493
 38.7676  7913.26  88.0309
 38.9656  7902.96  87.6018
 39.1636  7918.59  87.9363
 39.3616  7872.73  87.6459
 39.5596  7712.04  87.5609
 39.7576  7690.43  86.842
 39.9556  7852.26  87.3951
 40.1536  7904.54  87.8769
 40.3516  7855.33  87.7012
 40.5496  7944.74  88.1569
 40.7476  7996.25  88.6535
 40.9456  8008.14  88.4824
 41.1436  8011.63  88.2159
 41.3416  7794.83  87.3543
 41.5396  7770.94  87.0337
 41.7376  7802.55  87.4509
 41.9356  7783.73  87.2098
 42.1336  7922.3  88.1271
 42.3316  7702.91  87.1118
 42.5296  7829.82  87.3374
 42.7276  7819.98  87.5264
 42.9256  7700.68  86.7266
 43.1236  7722.78  86.954
 43.3216  7692.89  86.6302
 43.5196  7722.76  86.7637
 43.7176  7685.19  86.952
 43.9156  7512.6  85.8974
 44.1136  7319.94  84.3489
 44.3116  7509.06  85.4369
 44.5096  7397.76  85.115
 44.7076  7535.47  85.8328
 44.9056  7516.72  85.5757
 45.1036  7747.49  86.5044
 45.3016  7534.18  85.8043
 45.4996  7502.94  85.5698
 45.6976  7351.13  84.8801
 45.8956  7544.5  85.8019
 46.0936  7564.92  85.6671
 46.2916  7592.22  86.0568
 46.4896  7496.37  85.5285
 46.6876  7420  85.8058
 46.8856  7306.27  84.5393
 47.0836  7364.82  84.9993
 47.2816  7274.88  84.3717
 47.4796  7465.79  85.5779
 47.6776  7263.84  85.3567
 47.8756  7303.21  84.7658
 48.0736  7437.79  85.9821
 48.2716  7218.62  84.5368
 48.4696  7489.4  85.6873
 48.6676  7364.63  85.5781
 48.8656  7325.19  85.0707
 49.0636  7439.83  85.6777
 49.2616  7246.36  84.6036
 49.4596  7257.45  84.199
 49.6576  7191.03  84.0496
 49.8556  7197.17  84.1144
 50.0536  7309.27  85.2217
 50.2516  7231.83  84.8745
 50.4496  7219.59  84.4842
 50.6476  7260.96  84.3991
 50.8456  7233.61  84.3078
 51.0436  6953.53  83.1363
 51.2416  6946.1  82.7626
 51.4396  6847  82.5692
 51.6376  6968.24  83.1207
 51.8356  6903.11  82.3493
 52.0336  6870.92  82.6583
 52.2316  6936.91  83.4212
 52.4296  6913.72  82.9832
 52.6276  6778.24  82.2709
 52.8256  6969.21  82.9765
 53.0236  7002.31  83.8227
 53.2216  6966.65  83.6248
 53.4196  6857.37  82.896
 53.6176  6903.52  83.6815
 53.8156  6729.61  82.2924
 54.0136  6591.51  81.6109
 54.2116  6758.06  82.2664
 54.4096  6515.4  80.8481
 54.6076  6550.17  81.3989
 54.8056  6457.98  80.6141
 55.0036  6599.04  81.7355
 55.2016  6500.58  80.7139
 55.3996  6409.11  80.2224
 55.5976  6424.23  80.494
 55.7956  6374.41  80.0089
 55.9936  6486.36  80.8079
 56.1916  6323.85  79.8424
 56.3896  6251.69  79.3655
 56.5876  6244.02  79.8813
 56.7856  6246.18  79.3918
 56.9836  6329.43  79.6785
 57.1816  6427.05  80.6537
 57.3796  6143.93  78.6604
 57.5776  6123  78.4478
 57.7756  6129.17  79.125
 57.9736  6119.24  78.7485
 58.1716  6096.27  78.8651
 58.3696  5866.32  77.141
 58.5676  6025.45  77.6447
 58.7656  5899.83  77.5063
 58.9636  5893.06  77.4846
 59.1616  5941.74  77.9362
 59.3596  5984.54  77.4821
 59.5576  5974.81  77.4759
 59.7556  5645.24  75.7133
 59.9536  6083.45  78.4954
 60.1516  6024.06  78.9591
 60.1996  0.0000000E+00  0.0000000E+00