File: docs/examples/opeando_xrd/IS17_D/Data/IS17_D/17_Da_f00082.xye
# /beamlines/bl04/projects/cycle2025-II/20250340211-lsimonelli/DATA/IS17_D/17_Da_f00082.xye : mythproc.py merge -s 0.006 -l 0.5 -f /beamlines/bl04/inhouse/ff/FlatField/ff_20Nov2024rod8mm60s_17keV.raw -b True -c true -o xye /beamlines/bl04/projects/cycle2025-II/20250340211-lsimonelli/DATA/IS17_D/17_Da_00082.dat
# IsMon = [6775995, 6776590, 6778178]  IsPos = [-1.4999, -2.4884, -3.4988]
# Wave = 0.4962  CalPath /beamlines/bl04/projects/cycle2025-II/20250340211-lsimonelli/DATA/Align/Si_Pos1_25keV_f00001.cal
# Date = 2025-09-24_16:24:24 Dt = 4.8000  Bin = 0.0060  <imon> = 6776921 +/- 921 (Min/Max) 6775995 / 6778178
# icurr 251.5898  mocoIn 1.7155E-05  mocoOut 0.8052  i15 7.09298e+06  imon 6.77692e+06  i7 4.3333  iEMpd_timer 4.8000  iEMpd_1 3.2109E-08  iEMpd_2 7.8298E-08  iEMpd_3 1.6332E-08  iEMpd_4 4.7751E-08  iEMhp_timer 4.8000  iEMhp_1 4.9143E-06  iEMhp_2 -2.5550E-08  iEMhp_3 -2.3939E-08  iEMhp_4 -2.0800E-08
#      9776
 1.7416  69822.5  264.333
 1.9396  45205.7  212.966
 2.1376  32106.9  179.475
 2.3356  28978.7  170.15
 2.5336  27431.6  166.128
 2.7316  25239.7  159.459
 2.9296  24192.4  156.282
 3.1276  23639.4  154.041
 3.3256  23378  152.854
 3.5236  25179.2  158.438
 3.7216  22953.5  152.495
 3.9196  22621.9  150.624
 4.1176  22570.3  150.221
 4.3156  23816  154.471
 4.5136  26509.2  161.959
 4.7116  27315.5  165.541
 4.9096  26611  162.822
 5.1076  26405.7  162.776
 5.3056  26862.8  163.903
 5.5036  26537.6  162.804
 5.7016  27141.1  164.616
 5.8996  27655.9  165.383
 6.0976  28318.4  168.792
 6.2956  28810.5  169.587
 6.4936  29441.7  170.623
 6.6916  29747.3  172.508
 6.8896  30586.8  174.786
 7.0876  31724.3  178.734
 7.2856  31399.3  176.875
 7.4836  31997.7  177.886
 7.6816  32607.6  180.106
 7.8796  33986  183.866
 8.0776  36511.3  191.566
 8.2756  37804.4  193.52
 8.4736  38180.5  194.29
 8.6716  37457.5  193.078
 8.8696  37780.5  194.395
 9.0676  37009.7  191.752
 9.2656  35509.3  188.514
 9.4636  35186.8  186.058
 9.6616  34123.3  184
 9.8596  33173.8  180.898
 10.0576  31232.1  176.192
 10.2556  30232.1  173.778
 10.4536  30802.6  175.007
 10.6516  32451.2  179.847
 10.8496  28013.2  166.49
 11.0476  27450.6  164.836
 11.2456  28085.4  167.288
 11.4436  26828.6  162.662
 11.6416  26181.1  161.047
 11.8396  24767.5  156.839
 12.0376  24731.9  156.361
 12.2356  24954.1  157.477
 12.4336  24493  155.55
 12.6316  24001.5  154.255
 12.8296  24303.7  154.859
 13.0276  24846.7  156.758
 13.2256  24449.1  155.869
 13.4236  24690.1  156.399
 13.6216  24472.2  155.725
 13.8196  24889  156.812
 14.0176  24213.4  154.957
 14.2156  23712  152.382
 14.4136  22463.6  149.689
 14.6116  22151  147.85
 14.8096  21623.7  146.061
 15.0076  20407.6  145.728
 15.2056  19994.2  140.054
 15.4036  18938.8  137.139
 15.6016  18819.5  135.781
 15.7996  18253.1  133.997
 15.9976  17446.8  133.94
 16.1956  16973.9  129.996
 16.3936  16761.9  128.355
 16.5916  16559.2  128.212
 16.7896  16401.2  127.657
 16.9876  16232.8  128.464
 17.1856  16027.3  126.019
 17.3836  15561.2  124.075
 17.5816  15309.7  123.558
 17.7796  15130.1  122.764
 17.9776  15156.7  123.665
 18.1756  15426.5  123.434
 18.3736  15606.1  124.683
 18.5716  14790.6  121.132
 18.7696  14869.1  121.017
 18.9676  14238.7  118.23
 19.1656  14265.6  118.9
 19.3636  14129.8  118.546
 19.5616  14241.1  119.169
 19.7596  14204.1  118.424
 19.9576  14636.6  120.266
 20.1556  14030.4  118.271
 20.3536  13695.6  116.222
 20.5516  13293.6  114.959
 20.7496  13143.8  114.246
 20.9476  13311.8  114.725
 21.1456  13520.7  115.955
 21.3436  13190.9  114.486
 21.5416  12933.3  113.353
 21.7396  12766.3  112.473
 21.9376  12908.8  112.857
 22.1356  13071.9  113.699
 22.3336  13016.1  113.755
 22.5316  12722.9  112.543
 22.7296  12805.7  112.275
 22.9276  12667.3  112.348
 23.1256  13018.8  113.358
 23.3236  12655.2  112.332
 23.5216  12555.2  111.54
 23.7196  12524  111.352
 23.9176  12475  110.888
 24.1156  12238.5  110.299
 24.3136  11922.3  109.663
 24.5116  11919.5  109.174
 24.7096  11641.2  107.712
 24.9076  11509.3  107.122
 25.1056  11265.6  106.45
 25.3036  11321.8  106.218
 25.5016  11202.3  105.689
 25.6996  11327.2  105.854
 25.8976  11131.6  105.374
 26.0956  11237  105.887
 26.2936  10955.1  104.199
 26.4916  11174.6  105.123
 26.6896  10811.4  103.692
 26.8876  10634  102.695
 27.0856  10758.8  103.347
 27.2836  10461.7  101.802
 27.4816  10595.5  102.38
 27.6796  10448.1  102.045
 27.8776  10396.1  101.654
 28.0756  10323.6  101.582
 28.2736  10315  101.12
 28.4716  9991.11  99.5674
 28.6696  10021.8  99.5648
 28.8676  9865.61  99.1328
 29.0656  9754.39  98.5535
 29.2636  9744.11  98.2934
 29.4616  9829.46  98.9065
 29.6596  9767.86  98.1591
 29.8576  9518.66  97.5841
 30.0556  9818.11  98.9768
 30.2536  9731.65  98.3385
 30.4516  9657.41  97.616
 30.6496  9610.75  97.1051
 30.8476  9499.07  96.9823
 31.0456  9479.87  96.8469
 31.2436  9386.7  95.637
 31.4416  9191.26  94.8165
 31.6396  9425.84  96.0648
 31.8376  9371.32  95.3343
 32.0356  9280.24  95.4348
 32.2336  9124.4  94.0175
 32.4316  9063.69  94.1092
 32.6296  9126.54  94.268
 32.8276  9167.91  94.2558
 33.0256  8929.84  93.1005
 33.2236  8911.02  93.1463
 33.4216  9013.97  93.3756
 33.6196  8870.65  92.9207
 33.8176  8972.21  93.6069
 34.0156  8842.87  92.5503
 34.2136  8734.45  92.0225
 34.4116  8738.4  92.1975
 34.6096  8694.49  91.8467
 34.8076  8573.15  91.6021
 35.0056  8647.42  91.6944
 35.2036  8580.36  91.5417
 35.4016  8603.18  91.584
 35.5996  8500.5  91.0759
 35.7976  8421.3  90.927
 35.9956  8547.93  91.2531
 36.1936  8363.33  90.1276
 36.3916  8361.94  90.2986
 36.5896  8364.67  91.2866
 36.7876  8348.7  90.6034
 36.9856  8348.6  90.6304
 37.1836  8356.04  89.7656
 37.3816  8393.96  90.3362
 37.5796  8143.75  90.6992
 37.7776  8068.16  88.6644
 37.9756  8131  88.8855
 38.1736  8298.75  89.9988
 38.3716  8162.45  89.531
 38.5696  8190.95  90.0735
 38.7676  7780.9  87.3018
 38.9656  8005.86  88.187
 39.1636  7860.1  87.6381
 39.3616  7951.92  88.0879
 39.5596  7864.83  88.4456
 39.7576  7910.78  88.0791
 39.9556  7986.92  88.1358
 40.1536  8140.43  89.1838
 40.3516  8101.23  88.9788
 40.5496  8027.16  88.8295
 40.7476  8042.15  88.9175
 40.9456  8162.08  89.3221
 41.1436  8014.63  88.2427
 41.3416  8012.07  88.5632
 41.5396  7989.1  88.2478
 41.7376  7977.01  88.4448
 41.9356  7860.22  87.6532
 42.1336  7919.61  88.1318
 42.3316  7839.14  87.8815
 42.5296  7829.69  87.3453
 42.7276  7978.16  88.4105
 42.9256  7866.82  87.6637
 43.1236  7787.13  87.3252
 43.3216  7904.72  87.7312
 43.5196  7705.1  86.6815
 43.7176  7750.5  87.3259
 43.9156  7613.19  86.4565
 44.1136  7609.71  85.9941
 44.3116  7626.14  86.0969
 44.5096  7574.02  86.1146
 44.7076  7579.17  86.074
 44.9056  7466.53  85.2998
 45.1036  7524.02  85.2509
 45.3016  7359.77  84.8154
 45.4996  7504.47  85.5838
 45.6976  7266.73  84.3907
 45.8956  7432  85.1675
 46.0936  7424.77  85.1271
 46.2916  7432.38  85.1533
 46.4896  7410.85  85.0541
 46.6876  7242.58  84.794
 46.8856  7244.77  84.0676
 47.0836  7184.12  83.9652
 47.2816  7156.44  83.6836
 47.4796  7155.29  83.7748
 47.6776  7033.08  84.0032
 47.8756  7134.81  83.7762
 48.0736  7135.42  84.2381
 48.2716  6923.93  82.8037
 48.4696  7073.47  83.2815
 48.6676  6983.49  83.3286
 48.8656  7050.16  83.4591
 49.0636  7031.06  83.2903
 49.2616  6861.22  82.3171
 49.4596  6877.72  81.9788
 49.6576  6770.73  81.5674
 49.8556  6883.8  82.2638
 50.0536  6944.29  83.074
 50.2516  6875.77  82.7935
 50.4496  6780.65  81.8761
 50.6476  6781.99  81.5711
 50.8456  6733.19  81.3568
 51.0436  6628.21  81.1605
 51.2416  6574.93  80.5067
 51.4396  6576.19  80.914
 51.6376  6556.77  80.6223
 51.8356  6625.34  80.6756
 52.0336  6557.97  80.7656
 52.2316  6413.91  80.2224
 52.4296  6507.72  80.4902
 52.6276  6473.11  80.3952
 52.8256  6483.84  80.0314
 53.0236  6379.49  80.0194
 53.2216  6415.57  80.2797
 53.4196  6290.37  79.4142
 53.6176  6338.91  80.1973
 53.8156  6253.34  79.3258
 54.0136  6410.44  80.4928
 54.2116  6253.8  79.168
 54.4096  6388.54  80.065
 54.6076  6177.68  79.0811
 54.8056  6180.74  78.8895
 55.0036  6216.73  79.5083
 55.2016  6238.17  79.1955
 55.3996  6273.37  79.3826
 55.5976  6267.41  79.536
 55.7956  6205.46  78.9558
 55.9936  6130.77  78.6161
 56.1916  6168.28  78.8725
 56.3896  6174.38  78.9028
 56.5876  6194.47  79.5835
 56.7856  6138.16  78.7083
 56.9836  6124.03  78.3987
 57.1816  6235.87  79.4923
 57.3796  6209.41  79.1232
 57.5776  6174.44  78.8262
 57.7756  6060.43  78.7245
 57.9736  6084.54  78.56
 58.1716  6126.48  79.0748
 58.3696  5961.7  77.7551
 58.5676  6164.68  78.5459
 58.7656  6193.19  79.395
 58.9636  6159.5  79.2184
 59.1616  6249.82  79.9187
 59.3596  6288.42  79.4153
 59.5576  6157.56  78.6429
 59.7556  6235.72  79.5654
 59.9536  6302.2  79.8851
 60.1516  6225.56  80.2596
 60.1996  0.0000000E+00  0.0000000E+00