File: docs/examples/opeando_xrd/IS17_D/Data/IS17_D/17_Db_f00093.xye
# /beamlines/bl04/projects/cycle2025-II/20250340211-lsimonelli/DATA/IS17_D/17_Db_f00093.xye : mythproc.py merge -s 0.006 -l 0.5 -f /beamlines/bl04/inhouse/ff/FlatField/ff_20Nov2024rod8mm60s_17keV.raw -b True -c true -o xye /beamlines/bl04/projects/cycle2025-II/20250340211-lsimonelli/DATA/IS17_D/17_Db_00093.dat
# IsMon = [6795624, 6795091, 6789616]  IsPos = [-1.5000, -2.4884, -3.4989]
# Wave = 0.4962  CalPath /beamlines/bl04/projects/cycle2025-II/20250340211-lsimonelli/DATA/Align/Si_Pos1_25keV_f00001.cal
# Date = 2025-09-24_19:37:33 Dt = 4.8000  Bin = 0.0060  <imon> = 6793444 +/- 2715 (Min/Max) 6789616 / 6795624
# icurr 253.1827  mocoIn 1.7265E-05  mocoOut 0.8101  i15 7.11607e+06  imon 6.79344e+06  i7 7.3333  iEMpd_timer 4.8000  iEMpd_1 3.3530E-08  iEMpd_2 7.7555E-08  iEMpd_3 1.6519E-08  iEMpd_4 4.7171E-08  iEMhp_timer 4.8000  iEMhp_1 4.9445E-06  iEMhp_2 -2.5373E-08  iEMhp_3 -2.4305E-08  iEMhp_4 -2.1520E-08
#      9776
 1.7416  70385  265.335
 1.9396  48815.4  221.256
 2.1376  35917.1  189.78
 2.3356  32187.9  179.283
 2.5336  29925.3  173.475
 2.7316  27298.6  165.808
 2.9296  26155  162.448
 3.1276  25759.3  160.75
 3.3256  25143.6  158.483
 3.5236  26580  162.748
 3.7216  24259.9  156.769
 3.9196  23881.1  154.732
 4.1176  23881  154.506
 4.3156  24705.9  157.342
 4.5136  27151.6  163.9
 4.7116  28117  167.935
 4.9096  27424.6  165.293
 5.1076  27394.5  165.782
 5.3056  27476.8  165.765
 5.5036  27202.5  164.829
 5.7016  27463.6  165.586
 5.8996  28257.7  167.185
 6.0976  29005.2  170.8
 6.2956  28939.5  169.965
 6.4936  29868  171.847
 6.6916  30077.2  173.444
 6.8896  30656.5  174.954
 7.0876  31945.1  179.253
 7.2856  31636.5  177.527
 7.4836  31942.3  177.721
 7.6816  32832.3  180.701
 7.8796  33314.8  182.054
 8.0776  34935.8  187.411
 8.2756  36547.9  190.321
 8.4736  37232.3  191.888
 8.6716  36514.9  190.639
 8.8696  37274.1  193.122
 9.0676  35949  188.979
 9.2656  35301.3  187.971
 9.4636  34469.5  184.221
 9.6616  33765  183.06
 9.8596  33007.5  180.388
 10.0576  30714  174.67
 10.2556  30245.4  173.783
 10.4536  29347.2  170.773
 10.6516  28818.3  169.445
 10.8496  27622.9  165.338
 11.0476  26794.4  162.855
 11.2456  26050.2  161.101
 11.4436  26072.1  160.353
 11.6416  26278.8  161.321
 11.8396  24750.2  156.753
 12.0376  24195.3  154.654
 12.2356  23874.6  154.025
 12.4336  23634.6  152.802
 12.6316  23610.3  152.978
 12.8296  23682.4  152.841
 13.0276  24109.6  154.416
 13.2256  24389.9  155.677
 13.4236  24073.3  154.435
 13.6216  24612.1  156.143
 13.8196  26539.4  161.605
 14.0176  23700  153.204
 14.2156  23403  151.376
 14.4136  22037  148.261
 14.6116  21873.5  146.905
 14.8096  21100  144.281
 15.0076  20217  145.089
 15.2056  19241.1  137.401
 15.4036  18376.9  135.11
 15.6016  18254  133.743
 15.7996  17556.5  131.441
 15.9976  17485.8  134.675
 16.1956  16730.7  129.049
 16.3936  16600.4  127.713
 16.5916  16414.9  127.647
 16.7896  16320.5  127.342
 16.9876  16185.9  128.263
 17.1856  15952.6  125.704
 17.3836  15546.2  123.995
 17.5816  15249.1  123.292
 17.7796  15059.9  122.452
 17.9776  14650.9  121.564
 18.1756  14807.6  120.963
 18.3736  14582.4  120.517
 18.5716  14426.8  119.625
 18.7696  14246.7  118.446
 18.9676  14242.4  118.227
 19.1656  13915.9  117.457
 19.3636  13913.1  117.629
 19.5616  13776.4  117.221
 19.7596  14060.6  117.819
 19.9576  14139.2  118.188
 20.1556  14234.1  119.124
 20.3536  13582.3  115.742
 20.5516  13345.4  115.175
 20.7496  13077.8  113.863
 20.9476  13114.8  113.866
 21.1456  12917.1  113.338
 21.3436  12891.7  113.174
 21.5416  12654.3  112.137
 21.7396  12511.1  111.347
 21.9376  12507.9  111.116
 22.1356  12792.8  112.63
 22.3336  12300.3  110.587
 22.5316  12300.9  110.688
 22.7296  12270.6  109.923
 22.9276  12155.8  110.07
 23.1256  12267.8  110.067
 23.3236  12588.1  112.053
 23.5216  12433  110.999
 23.7196  12532.8  111.603
 23.9176  12495.9  110.976
 24.1156  12219.3  110.204
 24.3136  11892.4  109.498
 24.5116  12027  109.633
 24.7096  11732.1  108.101
 24.9076  11594.1  107.492
 25.1056  11184.1  106.032
 25.3036  10934.4  104.367
 25.5016  10973.6  104.598
 25.6996  11020.1  104.409
 25.8976  10984.3  104.656
 26.0956  10924  104.404
 26.2936  10793.8  103.43
 26.4916  10964.8  104.11
 26.6896  10799.5  103.632
 26.8876  10709.5  103.034
 27.0856  10466.7  101.943
 27.2836  10220.6  100.618
 27.4816  10073.7  99.833
 27.6796  10200.8  100.824
 27.8776  10425.3  101.774
 28.0756  9993.34  99.9421
 28.2736  10069.8  99.9065
 28.4716  9829.38  98.756
 28.6696  9861.71  98.7645
 28.8676  9773.48  98.6722
 29.0656  9593.81  97.7346
 29.2636  9681.43  97.9657
 29.4616  9511.03  97.3036
 29.6596  9417.42  96.3949
 29.8576  9226.72  96.0821
 30.0556  9167  95.6509
 30.2536  9447.29  96.8988
 30.4516  9405.95  96.3237
 30.6496  9273.3  95.3834
 30.8476  9399.99  96.4811
 31.0456  9463.39  96.7576
 31.2436  9337.09  95.3783
 31.4416  9235.91  95.0228
 31.6396  9359.46  95.7079
 31.8376  9201.63  94.4108
 32.0356  9303.8  95.5188
 32.2336  9192.24  94.347
 32.4316  8950.72  93.5115
 32.6296  8832.26  92.7303
 32.8276  8936.64  93.0666
 33.0256  8721.09  91.9911
 33.2236  8929.63  93.2391
 33.4216  8832.24  92.4189
 33.6196  8870.98  92.9077
 33.8176  8898.48  93.2269
 34.0156  8748.75  92.0653
 34.2136  8810.51  92.4051
 34.4116  8455.86  90.6941
 34.6096  8434.06  90.4593
 34.8076  8474.63  91.0904
 35.0056  8526.38  91.0272
 35.2036  8670.71  92.0317
 35.4016  8407.78  90.5449
 35.5996  8349.54  90.2595
 35.7976  8300.35  90.2676
 35.9956  8546.67  91.2397
 36.1936  8501.62  90.8442
 36.3916  8320.31  90.0735
 36.5896  8182.48  90.2978
 36.7876  8027.11  88.8508
 36.9856  7869.57  87.9995
 37.1836  8049.18  88.1093
 37.3816  7892.68  87.6158
 37.5796  8128.01  90.625
 37.7776  8115.94  88.9261
 37.9756  8059.09  88.4941
 38.1736  8057.85  88.6881
 38.3716  7953.21  88.3658
 38.5696  7971.15  88.8359
 38.7676  7796.98  87.3708
 38.9656  7859.2  87.3526
 39.1636  7934.57  88.0416
 39.3616  7888.88  87.7253
 39.5596  7764.08  87.8766
 39.7576  7825.3  87.6053
 39.9556  7893.5  87.6227
 40.1536  7878.15  87.7348
 40.3516  7916.93  87.9619
 40.5496  7862.85  87.9038
 40.7476  8023.44  88.8175
 40.9456  8013.01  88.5073
 41.1436  7956.38  87.9151
 41.3416  7808.94  87.4352
 41.5396  7847.85  87.4591
 41.7376  7738.98  87.0975
 41.9356  7828.99  87.4522
 42.1336  7952.68  88.2993
 42.3316  7745.67  87.3495
 42.5296  7783.7  87.0829
 42.7276  7934.11  88.15
 42.9256  7769.19  87.1141
 43.1236  7704.16  86.8504
 43.3216  7810.87  87.1998
 43.5196  7792.33  87.1477
 43.7176  7693.08  86.993
 43.9156  7492.09  85.7757
 44.1136  7556.71  85.7036
 44.3116  7554.61  85.7131
 44.5096  7493.13  85.6642
 44.7076  7478.09  85.4984
 44.9056  7625.15  86.2087
 45.1036  7573.47  85.5273
 45.3016  7587.46  86.1237
 45.4996  7512.26  85.6326
 45.6976  7413.02  85.2501
 45.8956  7494.56  85.5025
 46.0936  7602.62  85.8687
 46.2916  7539.05  85.7299
 46.4896  7520.53  85.6447
 46.6876  7466.9  86.0846
 46.8856  7389.69  84.898
 47.0836  7357.13  84.9641
 47.2816  7310.04  84.5691
 47.4796  7442.47  85.4309
 47.6776  7308.03  85.6226
 47.8756  7395.11  85.2957
 48.0736  7356.17  85.5314
 48.2716  7274.07  84.8625
 48.4696  7394.81  85.1531
 48.6676  7348.36  85.4804
 48.8656  7263.54  84.7026
 49.0636  7402.22  85.4594
 49.2616  7238.98  84.5549
 49.4596  7310.48  84.5181
 49.6576  7315.71  84.7814
 49.8556  7247.9  84.41
 50.0536  7287.52  85.0996
 50.2516  7269.02  85.1276
 50.4496  7193.81  84.3296
 50.6476  7253.73  84.3566
 50.8456  7205.19  84.1539
 51.0436  7106.07  84.0418
 51.2416  7001.55  83.1003
 51.4396  6987.9  83.4198
 51.6376  6914.74  82.7959
 51.8356  6964.05  82.7012
 52.0336  7050.97  83.7468
 52.2316  6909.43  83.2573
 52.4296  7000.89  83.5173
 52.6276  6915.39  83.1024
 52.8256  6892.12  82.5226
 53.0236  6999.73  83.7941
 53.2216  6861.86  82.9855
 53.4196  6924.87  83.2936
 53.6176  6924.78  83.8025
 53.8156  6945.73  83.5919
 54.0136  6519.7  81.1654
 54.2116  6708.1  81.9584
 54.4096  6585.35  81.2843
 54.6076  6508  81.1517
 54.8056  6463.89  80.6399
 55.0036  6563.92  81.5338
 55.2016  6408.54  80.2438
 55.3996  6370.31  79.9806
 55.5976  6396.65  80.3275
 55.7956  6499.1  80.7784
 55.9936  6502.85  80.9306
 56.1916  6382.8  80.2245
 56.3896  6260.76  79.4274
 56.5876  6298.28  80.2253
 56.7856  6151.37  78.7732
 56.9836  6390.84  80.0555
 57.1816  6342.34  80.0301
 57.3796  6275.78  79.5315
 57.5776  6228.65  79.1214
 57.7756  6160.51  79.3585
 57.9736  6150.46  78.9433
 58.1716  6168.65  79.3454
 58.3696  5916.78  77.4683
 58.5676  5935.66  77.0663
 58.7656  5886.12  77.4173
 58.9636  5779.33  76.7423
 59.1616  5815.3  77.1104
 59.3596  6004.89  77.6335
 59.5576  5961.98  77.4129
 59.7556  5795.98  76.7374
 59.9536  5999.67  77.9734
 60.1516  5836.73  77.7419
 60.1996  5861.76  81.0086