File: docs/examples/opeando_xrd/IS17_D/Data/IS17_D/17_Db_f00013.xye
# /beamlines/bl04/projects/cycle2025-II/20250340211-lsimonelli/DATA/IS17_D/17_Db_f00013.xye : mythproc.py merge -s 0.006 -l 0.5 -f /beamlines/bl04/inhouse/ff/FlatField/ff_20Nov2024rod8mm60s_17keV.raw -b True -c true -o xye /beamlines/bl04/projects/cycle2025-II/20250340211-lsimonelli/DATA/IS17_D/17_Db_00013.dat
# IsMon = [6779684, 6783458, 6783346]  IsPos = [-1.5000, -2.4885, -3.4986]
# Wave = 0.4962  CalPath /beamlines/bl04/projects/cycle2025-II/20250340211-lsimonelli/DATA/Align/Si_Pos1_25keV_f00001.cal
# Date = 2025-09-23_21:18:00 Dt = 4.8000  Bin = 0.0060  <imon> = 6782163 +/- 1753 (Min/Max) 6779684 / 6783458
# icurr 253.1038  mocoIn 1.7269E-05  mocoOut 0.8103  i15 7.0995e+06  imon 6.78216e+06  i7 4.3333  iEMpd_timer 4.8000  iEMpd_1 3.4216E-08  iEMpd_2 7.7153E-08  iEMpd_3 1.6905E-08  iEMpd_4 4.6282E-08  iEMhp_timer 4.8000  iEMhp_1 4.9452E-06  iEMhp_2 -2.4292E-08  iEMhp_3 -2.3587E-08  iEMhp_4 -2.0749E-08
#      9776
 1.7416  68831.7  262.481
 1.9396  46650.8  216.372
 2.1376  33790.1  184.141
 2.3356  30564.6  174.764
 2.5336  31511.1  178.074
 2.7316  26160.2  162.345
 2.9296  24471.9  157.168
 3.1276  24140.6  155.655
 3.3256  23215.3  152.311
 3.5236  25044  158.151
 3.7216  22719.1  151.703
 3.9196  22894.3  151.502
 4.1176  22284.5  149.268
 4.3156  23200.5  152.465
 4.5136  26475.3  161.846
 4.7116  26818.9  164.02
 4.9096  26082.3  161.193
 5.1076  25578.6  160.204
 5.3056  25907.1  160.829
 5.5036  25132.2  158.451
 5.7016  25525  159.633
 5.8996  26018.5  160.424
 6.0976  26885.4  164.442
 6.2956  26976.3  164.091
 6.4936  27888.1  166.056
 6.6916  28269.2  168.152
 6.8896  29546.3  171.75
 7.0876  30428.9  174.956
 7.2856  29819.9  172.346
 7.4836  30570.8  173.867
 7.6816  31086.5  175.828
 7.8796  32069.1  178.58
 8.0776  36283.1  190.957
 8.2756  36402.3  189.892
 8.4736  36334.1  189.527
 8.6716  35490.8  187.926
 8.8696  37221.3  192.984
 9.0676  36313.5  189.945
 9.2656  33974.1  184.396
 9.4636  32946.9  180.083
 9.6616  32057.7  178.345
 9.8596  31610.4  176.551
 10.0576  29540.9  171.329
 10.2556  29070.2  170.402
 10.4536  33536.4  182.606
 10.6516  34732  186.056
 10.8496  26442.5  161.763
 11.0476  26207.4  161.005
 11.2456  29528  171.521
 11.4436  25681.4  159.144
 11.6416  24806.1  156.738
 11.8396  23916.7  154.114
 12.0376  23030.6  150.862
 12.2356  24835.6  157.127
 12.4336  23751.7  153.178
 12.6316  22770.6  150.241
 12.8296  23279.5  151.529
 13.0276  23250.9  151.637
 13.2256  23239.9  151.961
 13.4236  23223.4  151.685
 13.6216  23631.8  153.006
 13.8196  26731.6  162.176
 14.0176  22808.4  150.382
 14.2156  22501.7  148.429
 14.4136  21236.3  145.534
 14.6116  21047.6  144.1
 14.8096  20061.5  140.678
 15.0076  19468.4  142.398
 15.2056  18431.8  134.462
 15.4036  17450.6  131.631
 15.6016  17139.6  129.574
 15.7996  16942  129.093
 15.9976  16467.7  130.085
 16.1956  16142.7  126.749
 16.3936  15765  124.47
 16.5916  15939  125.783
 16.7896  15851.4  125.503
 16.9876  15593  125.894
 17.1856  15538  124.07
 17.3836  14718.4  120.675
 17.5816  14667.2  120.933
 17.7796  14666.7  120.866
 17.9776  14606.7  121.386
 18.1756  16130.8  126.248
 18.3736  15760.5  125.281
 18.5716  13920.5  117.509
 18.7696  13927.3  117.112
 18.9676  13637.4  115.691
 19.1656  13247.4  114.588
 19.3636  13266.9  114.859
 19.5616  13289.8  115.128
 19.7596  13601  115.893
 19.9576  14163.7  118.292
 20.1556  13058.8  114.095
 20.3536  12909.5  112.841
 20.5516  12541.2  111.648
 20.7496  12577.8  111.674
 20.9476  13105.9  113.832
 21.1456  13025.1  113.804
 21.3436  12359.9  110.814
 21.5416  12362.6  110.838
 21.7396  12047.4  109.263
 21.9376  12172.7  109.61
 22.1356  12561.1  111.494
 22.3336  12126.8  109.775
 22.5316  11913.7  108.912
 22.7296  11865.7  108.08
 22.9276  11667.5  107.815
 23.1256  12189.3  109.687
 23.3236  12170.5  110.178
 23.5216  12225.2  110.064
 23.7196  12162.5  109.95
 23.9176  12064.2  109.052
 24.1156  11752.7  108.071
 24.3136  11597.8  108.147
 24.5116  11558.1  107.484
 24.7096  11655.2  107.766
 24.9076  11370  106.469
 25.1056  11042.3  105.103
 25.3036  10743.7  103.46
 25.5016  10812.1  103.833
 25.6996  10653.2  102.657
 25.8976  10960.3  104.559
 26.0956  10762.2  103.616
 26.2936  10644.1  102.708
 26.4916  10873.2  103.663
 26.6896  10443.8  101.905
 26.8876  10272.1  100.921
 27.0856  10173.5  100.455
 27.2836  10003.9  99.6998
 27.4816  10214.5  100.529
 27.6796  9887.59  99.264
 27.8776  10473.5  102.023
 28.0756  9851.26  99.2233
 28.2736  9973.56  99.4282
 28.4716  9563.52  97.4068
 28.6696  9663.06  97.753
 28.8676  9422.82  96.8875
 29.0656  9379.68  96.638
 29.2636  9443.29  96.6879
 29.4616  9117.48  95.2526
 29.6596  9179.01  95.1503
 29.8576  9017.85  94.9774
 30.0556  9182.95  95.7255
 30.2536  9006.3  94.5949
 30.4516  9281.95  95.6876
 30.6496  9198.59  94.9877
 30.8476  9160.92  95.2375
 31.0456  9224.02  95.5332
 31.2436  9127.84  94.3041
 31.4416  9042.21  94.043
 31.6396  9465.63  96.2577
 31.8376  9148.37  94.1552
 32.0356  9097.12  94.4621
 32.2336  8952.98  93.1359
 32.4316  8673.56  92.0459
 32.6296  8702.45  91.9847
 32.8276  8616.09  91.3805
 33.0256  8627.57  91.4991
 33.2236  8709.44  92.0838
 33.4216  8554.99  90.9468
 33.6196  8501.78  90.9567
 33.8176  8479.18  91.0016
 34.0156  8353.25  89.9614
 34.2136  8463.62  90.5774
 34.4116  8321.58  89.9738
 34.6096  8376.89  90.1522
 34.8076  8312.64  90.2178
 35.0056  8299.82  89.811
 35.2036  8405.98  90.619
 35.4016  8229.34  89.5702
 35.5996  8141.76  89.1303
 35.7976  8156.01  89.4683
 35.9956  8348  90.1682
 36.1936  8204.51  89.2488
 36.3916  8027.63  88.4765
 36.5896  8251.98  91.1595
 36.7876  7865.83  87.9396
 36.9856  7741.63  87.2641
 37.1836  7840.87  86.9421
 37.3816  7809.52  87.1274
 37.5796  7820.63  88.8938
 37.7776  7949.31  88.0009
 37.9756  7987.9  88.1109
 38.1736  8043.05  88.5977
 38.3716  7976.46  88.502
 38.5696  7726.46  87.4754
 38.7676  7773.9  87.2578
 38.9656  7752.91  86.7805
 39.1636  7744.91  86.9685
 39.3616  7772.22  87.085
 39.5596  7561.27  86.7214
 39.7576  7686.24  86.8227
 39.9556  7754.09  86.8501
 40.1536  7799.75  87.2948
 40.3516  7687.36  86.75
 40.5496  7867.03  87.729
 40.7476  7846.1  87.818
 40.9456  7891.78  87.8345
 41.1436  7799.42  87.0511
 41.3416  7646.97  86.5169
 41.5396  7610.8  86.1227
 41.7376  7727.85  87.0497
 41.9356  7695.87  86.7275
 42.1336  7864.53  87.8141
 42.3316  7619.35  86.6298
 42.5296  7708.26  86.6459
 42.7276  7724.96  86.9943
 42.9256  7556.34  85.9097
 43.1236  7503.58  85.7068
 43.3216  7682.01  86.5831
 43.5196  7510.26  85.5646
 43.7176  7529.62  86.0589
 43.9156  7195.15  84.0501
 44.1136  7351.13  84.5156
 44.3116  7392.28  84.7604
 44.5096  7268.85  84.3567
 44.7076  7351.83  84.7683
 44.9056  7507.56  85.5406
 45.1036  7374.25  84.4041
 45.3016  7371.55  84.8806
 45.4996  7377.37  84.8603
 45.6976  7214.43  84.0891
 45.8956  7428.64  85.1433
 46.0936  7482.42  85.2031
 46.2916  7421.34  85.0861
 46.4896  7439.52  85.2118
 46.6876  7344.88  85.3834
 46.8856  7278.87  84.3764
 47.0836  7321.41  84.759
 47.2816  7182.97  83.8337
 47.4796  7237.44  84.2524
 47.6776  7079.27  84.2719
 47.8756  7241.77  84.3943
 48.0736  7231.2  84.786
 48.2716  7159.11  84.1918
 48.4696  7362.36  84.9628
 48.6676  7182.77  84.5092
 48.8656  7125.67  83.8941
 49.0636  7363.49  85.2367
 49.2616  7152.34  84.0441
 49.4596  7198.1  83.8766
 49.6576  7064.46  83.3215
 49.8556  7196.15  84.1094
 50.0536  7237.72  84.7975
 50.2516  7105.5  84.1366
 50.4496  7104.71  83.8065
 50.6476  7152.71  83.763
 50.8456  7081.03  83.4314
 51.0436  6831.23  82.3893
 51.2416  6922.33  82.6062
 51.4396  6746  81.948
 51.6376  6855.44  82.4237
 51.8356  6773.16  81.5623
 52.0336  6830.58  82.4217
 52.2316  6837.73  82.8239
 52.4296  6828.87  82.4728
 52.6276  6708.12  81.8461
 52.8256  6922.72  82.7063
 53.0236  6948.88  83.5002
 53.2216  6722.39  82.1444
 53.4196  6767.35  82.3561
 53.6176  6868.52  83.4747
 53.8156  6734.67  82.324
 54.0136  6563.16  81.4367
 54.2116  6573.64  81.1312
 54.4096  6465.06  80.5387
 54.6076  6442.02  80.7337
 54.8056  6430.37  80.4447
 55.0036  6518.52  81.2647
 55.2016  6379.05  79.9594
 55.3996  6222.02  79.0391
 55.5976  6348.75  80.0373
 55.7956  6359.73  79.9098
 55.9936  6403  80.3101
 56.1916  6310.55  79.7418
 56.3896  6054.2  78.0932
 56.5876  6188.26  79.5056
 56.7856  6179.54  78.9711
 56.9836  6295.03  79.4584
 57.1816  6262.61  79.6239
 57.3796  6077.57  78.2295
 57.5776  6129.98  78.4651
 57.7756  6070.04  78.758
 57.9736  6057.37  78.3521
 58.1716  5919.29  77.7205
 58.3696  5775.72  76.5308
 58.5676  5782.96  76.0484
 58.7656  5742.68  76.4551
 58.9636  5797.9  76.8358
 59.1616  5854.38  77.3548
 59.3596  5704.91  75.6408
 59.5576  5804.31  76.3542
 59.7556  5777.92  76.5895
 59.9536  5784.98  76.5373
 60.1516  5750.3  77.1357
 60.1996  0.0000000E+00  0.0000000E+00