File: docs/examples/opeando_xrd/IS17_D/Data/IS17_D/17_Db_f00154.xye
# /beamlines/bl04/projects/cycle2025-II/20250340211-lsimonelli/DATA/IS17_D/17_Db_f00154.xye : mythproc.py merge -s 0.006 -l 0.5 -f /beamlines/bl04/inhouse/ff/FlatField/ff_20Nov2024rod8mm60s_17keV.raw -b True -c true -o xye /beamlines/bl04/projects/cycle2025-II/20250340211-lsimonelli/DATA/IS17_D/17_Db_00154.dat
# IsMon = [6779174, 6773178, 6776529]  IsPos = [-1.4999, -2.4883, -3.4988]
# Wave = 0.4962  CalPath /beamlines/bl04/projects/cycle2025-II/20250340211-lsimonelli/DATA/Align/Si_Pos1_25keV_f00001.cal
# Date = 2025-09-25_12:38:38 Dt = 4.8000  Bin = 0.0060  <imon> = 6776294 +/- 2454 (Min/Max) 6773178 / 6779174
# icurr 252.8153  mocoIn 1.7244E-05  mocoOut 0.8091  i15 7.10084e+06  imon 6.77629e+06  i7 5.0000  iEMpd_timer 4.8000  iEMpd_1 3.6151E-08  iEMpd_2 7.8852E-08  iEMpd_3 1.6616E-08  iEMpd_4 4.8299E-08  iEMhp_timer 4.8000  iEMhp_1 4.9373E-06  iEMhp_2 -2.7308E-08  iEMhp_3 -2.3431E-08  iEMhp_4 -2.1193E-08
#      9776
 1.7416  70786.3  266.077
 1.9396  49273.7  222.284
 2.1376  36270.3  190.704
 2.3356  32311.7  179.618
 2.5336  30063.3  173.866
 2.7316  27940  167.77
 2.9296  26734.2  164.274
 3.1276  26233.5  162.243
 3.3256  25691.2  160.246
 3.5236  26911.3  163.791
 3.7216  24642.2  157.996
 3.9196  24141.5  155.578
 4.1176  24053.8  155.07
 4.3156  24881  157.894
 4.5136  27290.9  164.337
 4.7116  28389.9  168.757
 4.9096  27712.8  166.149
 5.1076  27555.3  166.26
 5.3056  27565.1  166.009
 5.5036  27418.1  165.496
 5.7016  27718.4  166.353
 5.8996  28451.6  167.758
 6.0976  29310.9  171.697
 6.2956  29291.1  170.996
 6.4936  30016.9  172.275
 6.6916  30298.6  174.083
 6.8896  31132  176.306
 7.0876  32106.8  179.802
 7.2856  32054  178.692
 7.4836  32169  178.451
 7.6816  33242.8  181.822
 7.8796  33973.7  183.854
 8.0776  35645.9  189.311
 8.2756  37037.6  191.577
 8.4736  38053.2  193.999
 8.6716  36977.2  191.865
 8.8696  37929.2  194.779
 9.0676  36788.5  191.149
 9.2656  35869.6  189.45
 9.4636  35255.7  186.271
 9.6616  34241.6  184.303
 9.8596  33792.3  182.538
 10.0576  31650.2  177.361
 10.2556  30708.4  175.128
 10.4536  29899.2  172.404
 10.6516  29165.3  170.484
 10.8496  28256.4  167.208
 11.0476  27651.4  165.438
 11.2456  26665.5  163.006
 11.4436  27006  163.191
 11.6416  26827  162.996
 11.8396  25380.2  158.744
 12.0376  24656.5  156.112
 12.2356  24299.3  155.406
 12.4336  24249.8  154.776
 12.6316  24238.2  154.998
 12.8296  24125.1  154.249
 13.0276  24650.9  156.148
 13.2256  24727.2  156.752
 13.4236  24761.8  156.628
 13.6216  24943.4  157.193
 13.8196  27073.7  163.246
 14.0176  24142.2  154.738
 14.2156  23611.3  152.041
 14.4136  22447.5  149.639
 14.6116  22268.1  148.226
 14.8096  21517.2  145.692
 15.0076  20487.5  146.072
 15.2056  19640.1  138.827
 15.4036  18706.5  136.311
 15.6016  18425  134.371
 15.7996  17787.8  132.297
 15.9976  17645.6  134.686
 16.1956  17361.6  131.44
 16.3936  16848.6  128.652
 16.5916  16797  129.107
 16.7896  16783  129.103
 16.9876  16560.6  129.731
 17.1856  16305.6  127.113
 17.3836  16030.7  125.936
 17.5816  15425  124.016
 17.7796  15407.4  123.87
 17.9776  15005.8  123.024
 18.1756  15086.4  122.095
 18.3736  14837.7  121.585
 18.5716  14575  120.237
 18.7696  14746.2  120.505
 18.9676  14588  119.65
 19.1656  14315.7  119.126
 19.3636  14237.3  119
 19.5616  14037.3  118.328
 19.7596  14268.4  118.682
 19.9576  14555.7  119.93
 20.1556  14465.7  120.09
 20.3536  13884.8  117.027
 20.5516  13589.4  116.225
 20.7496  13301  114.924
 20.9476  13216.8  114.303
 21.1456  13127.8  114.259
 21.3436  13131.8  114.221
 21.5416  12987.7  113.609
 21.7396  12774.3  112.511
 21.9376  12773.1  112.28
 22.1356  12919.6  113.049
 22.3336  12528.6  111.624
 22.5316  12520.6  111.673
 22.7296  12576.1  111.291
 22.9276  12469  111.48
 23.1256  12647.6  111.747
 23.3236  12775.1  112.863
 23.5216  12768  112.465
 23.7196  12596.5  111.662
 23.9176  12606.7  111.447
 24.1156  12511.3  111.494
 24.3136  12199.2  110.919
 24.5116  12144  110.182
 24.7096  11874  108.767
 24.9076  11731.4  108.137
 25.1056  11348.3  106.83
 25.3036  11177.7  105.539
 25.5016  11135.1  105.373
 25.6996  11193  105.225
 25.8976  11164.3  105.517
 26.0956  11062.5  105.051
 26.2936  11210.9  105.415
 26.4916  11185.5  105.138
 26.6896  10942.6  104.31
 26.8876  10883.1  103.872
 27.0856  10587  102.52
 27.2836  10492.6  102.017
 27.4816  10531.2  102.073
 27.6796  10410  101.855
 27.8776  10600.5  102.623
 28.0756  10177.7  100.861
 28.2736  10226  100.672
 28.4716  10010.3  99.6597
 28.6696  10022.9  99.5723
 28.8676  9916.94  99.3953
 29.0656  9872.08  99.1481
 29.2636  9882.82  98.988
 29.4616  9592.32  97.718
 29.6596  9698.38  97.8228
 29.8576  9421.91  97.099
 30.0556  9352.46  96.6179
 30.2536  9531.66  97.3363
 30.4516  9633.04  97.4762
 30.6496  9642.16  97.2407
 30.8476  9672.62  97.8519
 31.0456  9629.68  97.5873
 31.2436  9491.17  96.1438
 31.4416  9330.91  95.5298
 31.6396  9453.51  96.1907
 31.8376  9493.77  95.9174
 32.0356  9409.05  96.0619
 32.2336  9287.64  94.8458
 32.4316  9008.1  93.7645
 32.6296  9000.05  93.6162
 32.8276  9086.82  93.8455
 33.0256  8966.13  93.2821
 33.2236  9036.84  93.7887
 33.4216  9082.8  93.7146
 33.6196  8973.88  93.4388
 33.8176  9016.09  93.8436
 34.0156  8928.95  93.0058
 34.2136  8898.71  92.8609
 34.4116  8683.97  92.0265
 34.6096  8672.57  91.7306
 34.8076  8547.81  91.4848
 35.0056  8607.52  91.465
 35.2036  8822.07  92.8213
 35.4016  8511.27  91.0953
 35.5996  8546.05  91.3118
 35.7976  8593.69  91.8406
 35.9956  8674.89  91.923
 36.1936  8617.32  91.4688
 36.3916  8427.5  90.6026
 36.5896  8444.31  91.7374
 36.7876  8239.39  90.0218
 36.9856  8048.21  88.9926
 37.1836  8090.83  88.3409
 37.3816  8055.05  88.5048
 37.5796  8194.38  90.9878
 37.7776  8251.75  89.6409
 37.9756  8251.79  89.5335
 38.1736  8299.92  89.9916
 38.3716  8219.87  89.8359
 38.5696  8071.88  89.4082
 38.7676  7913.93  88.0353
 38.9656  8089.49  88.638
 39.1636  8131.5  89.1337
 39.3616  8090.51  88.858
 39.5596  7984.33  89.105
 39.7576  7806.44  87.5014
 39.9556  8036.59  88.4184
 40.1536  8095.81  88.9318
 40.3516  8016.31  88.5125
 40.5496  7995.91  88.6569
 40.7476  8125.28  89.3766
 40.9456  8175.85  89.4067
 41.1436  8185.45  89.1682
 41.3416  7886.61  87.8311
 41.5396  7887.05  87.6189
 41.7376  7909.17  88.0633
 41.9356  7957.16  88.1807
 42.1336  8152.59  89.386
 42.3316  7909.95  88.2775
 42.5296  7961.19  88.0633
 42.7276  7962.85  88.3256
 42.9256  7915.21  87.9252
 43.1236  7819.55  87.5001
 43.3216  7973.16  88.0891
 43.5196  7815.11  87.2766
 43.7176  7900.94  88.1513
 43.9156  7665.59  86.7709
 44.1136  7580.41  85.8406
 44.3116  7731.04  86.6997
 44.5096  7646.56  86.535
 44.7076  7713.51  86.8453
 44.9056  7724.16  86.7518
 45.1036  7678.3  86.1088
 45.3016  7706.36  86.777
 45.4996  7745.27  86.9304
 45.6976  7638.6  86.5193
 45.8956  7633.23  86.3062
 46.0936  7691.66  86.5825
 46.2916  7647.93  86.3749
 46.4896  7649.2  86.3998
 46.6876  7526.48  86.4338
 46.8856  7575.88  85.9642
 47.0836  7506.93  85.8225
 47.2816  7375.09  84.9534
 47.4796  7515.77  85.8703
 47.6776  7484.17  86.6491
 47.8756  7398.08  85.3062
 48.0736  7527.78  86.5195
 48.2716  7415.57  85.7183
 48.4696  7570.14  86.1787
 48.6676  7476.2  86.2251
 48.8656  7502.77  86.0999
 49.0636  7592.5  86.5518
 49.2616  7322.28  84.9263
 49.4596  7341.75  84.8591
 49.6576  7373.03  85.1137
 49.8556  7401.15  85.2977
 50.0536  7524.33  86.4719
 50.2516  7315.2  85.3881
 50.4496  7302.37  84.9697
 50.6476  7406.51  85.2396
 50.8456  7439.83  85.5246
 51.0436  7100.46  84.0108
 51.2416  7220.83  84.3803
 51.4396  7005.26  83.5259
 51.6376  7145.94  84.1811
 51.8356  7106.13  83.5508
 52.0336  7113.46  84.1039
 52.2316  6935.61  83.4028
 52.4296  6943.52  83.1572
 52.6276  6998.36  83.5921
 52.8256  7124.93  83.8862
 53.0236  7168.26  84.8141
 53.2216  7048.69  84.1419
 53.4196  6901.97  83.1671
 53.6176  7042.16  84.5189
 53.8156  6861.79  83.0948
 54.0136  6749.21  82.5828
 54.2116  6908.53  83.1714
 54.4096  6682.95  81.8847
 54.6076  6659.9  82.0791
 54.8056  6629.67  81.6722
 55.0036  6577.93  81.7659
 55.2016  6756.94  82.3796
 55.3996  6507.54  80.8345
 55.5976  6627.2  81.7565
 55.7956  6573.47  81.2416
 55.9936  6626.85  81.7021
 56.1916  6559.01  81.3328
 56.3896  6367.66  80.1174
 56.5876  6456.2  81.2305
 56.7856  6294.18  79.6971
 56.9836  6381.7  80.0139
 57.1816  6593.99  81.7081
 57.3796  6389.24  80.2438
 57.5776  6409.05  80.2578
 57.7756  6331.92  80.4504
 57.9736  6258.44  79.6539
 58.1716  6277.84  80.043
 58.3696  5993.26  77.9771
 58.5676  6077.11  77.9744
 58.7656  6078.45  78.6744
 58.9636  6083.35  78.7331
 59.1616  6036.07  78.5599
 59.3596  6077.6  78.0796
 59.5576  5958.41  77.3666
 59.7556  5981.6  77.9332
 59.9536  5856.87  77.0168
 60.1516  5978.17  78.6548
 60.1996  0.0000000E+00  0.0000000E+00