File: docs/examples/opeando_xrd/IS17_D/Data/IS17_D/17_Db_f00075.xye
# /beamlines/bl04/projects/cycle2025-II/20250340211-lsimonelli/DATA/IS17_D/17_Db_f00075.xye : mythproc.py merge -s 0.006 -l 0.5 -f /beamlines/bl04/inhouse/ff/FlatField/ff_20Nov2024rod8mm60s_17keV.raw -b True -c true -o xye /beamlines/bl04/projects/cycle2025-II/20250340211-lsimonelli/DATA/IS17_D/17_Db_00075.dat
# IsMon = [6751406, 6747982, 6746028]  IsPos = [-1.4999, -2.4884, -3.4989]
# Wave = 0.4962  CalPath /beamlines/bl04/projects/cycle2025-II/20250340211-lsimonelli/DATA/Align/Si_Pos1_25keV_f00001.cal
# Date = 2025-09-24_14:34:05 Dt = 4.8000  Bin = 0.0060  <imon> = 6748472 +/- 2223 (Min/Max) 6746028 / 6751406
# icurr 249.3333  mocoIn 1.7014E-05  mocoOut 0.7981  i15 7.07064e+06  imon 6.74847e+06  i7 6.0000  iEMpd_timer 4.8000  iEMpd_1 3.3565E-08  iEMpd_2 7.8381E-08  iEMpd_3 1.5495E-08  iEMpd_4 4.7414E-08  iEMhp_timer 4.8000  iEMhp_1 4.8712E-06  iEMhp_2 -2.5248E-08  iEMhp_3 -2.4199E-08  iEMhp_4 -2.0861E-08
#      9776
 1.7416  67602.8  260.023
 1.9396  46817.2  216.671
 2.1376  33907.8  184.387
 2.3356  30487.1  174.472
 2.5336  30627.4  175.489
 2.7316  26068.9  162.039
 2.9296  24574.8  157.472
 3.1276  24077.2  155.418
 3.3256  23613  153.603
 3.5236  25041.2  157.975
 3.7216  22965.7  152.525
 3.9196  23207.7  152.542
 4.1176  22486  149.928
 4.3156  23400.1  153.13
 4.5136  26463.8  161.818
 4.7116  27111.1  164.909
 4.9096  26434.1  162.282
 5.1076  25836  160.987
 5.3056  25881.8  160.881
 5.5036  25516.8  159.649
 5.7016  25970.5  161.019
 5.8996  26329.1  161.378
 6.0976  27281  165.642
 6.2956  27480.2  165.628
 6.4936  28276.4  167.211
 6.6916  28692.4  169.407
 6.8896  29844.4  172.632
 7.0876  30442.2  175.081
 7.2856  30350.9  173.878
 7.4836  31354.8  176.082
 7.6816  31894.4  178.099
 7.8796  32588.6  180.069
 8.0776  36502  191.572
 8.2756  36776.6  190.913
 8.4736  36341.2  189.583
 8.6716  35967.9  189.218
 8.8696  37392.5  193.414
 9.0676  37079.6  191.926
 9.2656  34575.8  186.014
 9.4636  33648.5  181.999
 9.6616  32846.7  180.533
 9.8596  32214.5  178.217
 10.0576  30383.5  173.752
 10.2556  29651.2  172.079
 10.4536  34117.9  184.143
 10.6516  34813.8  186.253
 10.8496  27132.9  163.861
 11.0476  26920.8  163.231
 11.2456  30281.2  173.697
 11.4436  26218.4  160.797
 11.6416  25222.7  158.052
 11.8396  24454.9  155.82
 12.0376  23661.2  152.94
 12.2356  25501  159.19
 12.4336  24319.2  155.004
 12.6316  23273.8  151.878
 12.8296  23862.7  153.426
 13.0276  23805.1  153.446
 13.2256  23671.9  153.371
 13.4236  23832.5  153.657
 13.6216  24057.8  154.372
 13.8196  27193.1  163.587
 14.0176  23174.7  151.499
 14.2156  22996.3  150.048
 14.4136  21646.3  146.941
 14.6116  21486.4  145.602
 14.8096  20456.9  142.056
 15.0076  19910.9  144
 15.2056  18811.1  135.863
 15.4036  18031.1  133.833
 15.6016  17668.4  131.583
 15.7996  17279  130.402
 15.9976  17021.3  132.865
 16.1956  16549.8  128.338
 16.3936  16415.8  127.007
 16.5916  16020.5  126.101
 16.7896  15983.2  126.011
 16.9876  15960.4  127.363
 17.1856  15734  124.848
 17.3836  14959.7  121.645
 17.5816  14820.7  121.547
 17.7796  14971.7  122.094
 17.9776  15021.8  123.099
 18.1756  16069.1  126.008
 18.3736  15915.1  125.901
 18.5716  14282  119.022
 18.7696  14332.1  118.797
 18.9676  14014.5  117.265
 19.1656  13644  116.301
 19.3636  13719.6  116.812
 19.5616  13721.6  116.985
 19.7596  13696  116.274
 19.9576  14300.7  118.865
 20.1556  13319.3  115.235
 20.3536  13066.5  113.529
 20.5516  12936.7  113.388
 20.7496  12816.8  112.803
 20.9476  13382.8  115.024
 21.1456  13236.3  114.735
 21.3436  12669.2  112.191
 21.5416  12665.3  112.189
 21.7396  12251.8  110.187
 21.9376  12431.9  110.775
 22.1356  12780  112.431
 22.3336  12306.4  110.621
 22.5316  12468.8  111.444
 22.7296  12002.7  108.722
 22.9276  12129.4  109.949
 23.1256  12547.9  111.313
 23.3236  12370.6  111.071
 23.5216  12332.6  110.543
 23.7196  12163.1  109.733
 23.9176  12246.8  109.858
 24.1156  12075.6  109.545
 24.3136  11953.1  109.782
 24.5116  11946.1  109.276
 24.7096  11862.7  108.705
 24.9076  11524.4  107.17
 25.1056  11383.4  106.973
 25.3036  10865.1  104.049
 25.5016  11022.2  104.835
 25.6996  10850.1  103.587
 25.8976  11211.4  105.738
 26.0956  10884.1  104.207
 26.2936  10840.7  103.657
 26.4916  11010.5  104.31
 26.6896  10685.5  103.077
 26.8876  10564.9  102.34
 27.0856  10466.9  101.941
 27.2836  10087.2  99.9619
 27.4816  10350.4  101.196
 27.6796  10185.6  100.748
 27.8776  10684.2  103.029
 28.0756  9962.27  99.7917
 28.2736  10083.9  99.9698
 28.4716  9773.03  98.474
 28.6696  9807.58  98.4971
 28.8676  9807.38  98.8466
 29.0656  9522.08  97.3702
 29.2636  9558.38  97.3418
 29.4616  9419.67  96.8379
 29.6596  9214.72  95.3536
 29.8576  9152.94  95.7024
 30.0556  9328.44  96.4937
 30.2536  9183.5  95.5424
 30.4516  9521.68  96.9187
 30.6496  9353.52  95.7821
 30.8476  9278.44  95.8312
 31.0456  9464.27  96.7527
 31.2436  9262.43  94.9884
 31.4416  9197.08  94.8311
 31.6396  9628.8  97.0523
 31.8376  9371.05  95.3026
 32.0356  9254.93  95.2564
 32.2336  9185.86  94.3133
 32.4316  8894.29  93.212
 32.6296  8811.42  92.6224
 32.8276  8862.11  92.6771
 33.0256  8684.01  91.7995
 33.2236  8917.09  93.1667
 33.4216  8751.34  92.0005
 33.6196  8700.99  92.0082
 33.8176  8768.71  92.5393
 34.0156  8531.6  90.9151
 34.2136  8691.71  91.7731
 34.4116  8445.05  90.6441
 34.6096  8554.16  91.0998
 34.8076  8518.02  91.3229
 35.0056  8408.06  90.393
 35.2036  8643.4  91.8822
 35.4016  8284.62  89.8773
 35.5996  8282.52  89.8975
 35.7976  8331.71  90.4374
 35.9956  8514.33  91.0668
 36.1936  8431.95  90.4792
 36.3916  8228.36  89.5672
 36.5896  8415.73  91.5734
 36.7876  7991.56  88.6574
 36.9856  7885.59  88.0952
 37.1836  7937.33  87.499
 37.3816  7972.56  88.0546
 37.5796  8033.53  90.0939
 37.7776  8065.41  88.6296
 37.9756  7996.88  88.1457
 38.1736  8183.24  89.358
 38.3716  8102.4  89.1976
 38.5696  7770.15  87.7123
 38.7676  7853.91  87.6881
 38.9656  7878.47  87.4644
 39.1636  7822.99  87.4151
 39.3616  7965.99  88.1556
 39.5596  7728.47  87.6714
 39.7576  7779.31  87.3481
 39.9556  7889.49  87.6051
 40.1536  7949.51  88.1307
 40.3516  7940.08  88.0875
 40.5496  7878.27  88.0029
 40.7476  7853.91  87.8599
 40.9456  7940.11  88.1011
 41.1436  7949.12  87.8679
 41.3416  7825.17  87.5283
 41.5396  7872.43  87.5959
 41.7376  7810.75  87.516
 41.9356  7721.61  86.876
 42.1336  7958.98  88.3306
 42.3316  7787.86  87.5966
 42.5296  7880.35  87.6238
 42.7276  7784.43  87.3306
 42.9256  7920.5  87.9592
 43.1236  7747.94  87.1009
 43.3216  7843.69  87.3857
 43.5196  7645.4  86.3284
 43.7176  7617.33  86.5614
 43.9156  7486.17  85.7498
 44.1136  7397.88  84.7962
 44.3116  7555.4  85.7138
 44.5096  7487.24  85.6307
 44.7076  7595.69  86.1799
 44.9056  7538.04  85.7085
 45.1036  7457.1  84.8702
 45.3016  7631  86.3527
 45.4996  7530.04  85.7272
 45.6976  7391.37  85.1155
 45.8956  7431  85.1444
 46.0936  7595.91  86.0855
 46.2916  7504.85  85.5522
 46.4896  7587.87  86.0466
 46.6876  7473.68  86.1173
 46.8856  7396.6  84.9439
 47.0836  7326.11  84.7806
 47.2816  7303.6  84.5395
 47.4796  7407.75  85.2536
 47.6776  7269.29  85.3916
 47.8756  7265.34  84.5456
 48.0736  7294.76  85.1704
 48.2716  7234.85  84.6407
 48.4696  7442.37  85.4222
 48.6676  7320.38  85.3168
 48.8656  7298.84  84.9214
 49.0636  7504.08  86.0343
 49.2616  7191.14  84.273
 49.4596  7256.3  84.2046
 49.6576  7273.19  84.535
 49.8556  7193.06  84.0901
 50.0536  7232.59  84.7738
 50.2516  7221.57  84.8339
 50.4496  7170.3  84.191
 50.6476  7224.01  84.1798
 50.8456  7254.93  84.4493
 51.0436  6952.88  83.1352
 51.2416  6902.03  82.5046
 51.4396  6766.98  82.0933
 51.6376  6959.76  83.073
 51.8356  6929.71  82.5096
 52.0336  6936.45  83.0597
 52.2316  7008.45  83.8562
 52.4296  6839.89  82.5449
 52.6276  6800.59  82.4172
 52.8256  6981.85  83.0528
 53.0236  6934.18  83.41
 53.2216  6776.9  82.4925
 53.4196  6935.67  83.3595
 53.6176  6878.94  83.5272
 53.8156  6764.78  82.4982
 54.0136  6573.91  81.5073
 54.2116  6735.52  82.1106
 54.4096  6564.5  81.1482
 54.6076  6535.34  81.3119
 54.8056  6476.41  80.7168
 55.0036  6504.48  81.3148
 55.2016  6505.35  80.88
 55.3996  6270.93  79.3411
 55.5976  6404.18  80.3804
 55.7956  6446.82  80.4576
 55.9936  6512.67  81.001
 56.1916  6348.9  80.0149
 56.3896  6165.4  78.8251
 56.5876  6315.37  80.3291
 56.7856  6259.75  79.4651
 56.9836  6317.96  79.6169
 57.1816  6294.31  79.7314
 57.3796  6151.5  78.7342
 57.5776  6215.44  79.0422
 57.7756  6163.92  79.3756
 57.9736  6158.57  79.0141
 58.1716  5995.63  78.2225
 58.3696  5965.65  77.7926
 58.5676  5950.26  77.1654
 58.7656  5875.57  77.3494
 58.9636  5878.51  77.3895
 59.1616  5986.23  78.2374
 59.3596  5907.96  76.9969
 59.5576  5957.79  77.3779
 59.7556  5992.84  78.0218
 59.9536  6033.04  78.182
 60.1516  5826.85  77.6683
 60.1996  5748.82  80.2163