File: docs/examples/opeando_xrd/IS17_D/Data/IS17_D/17_Db_f00139.xye
# /beamlines/bl04/projects/cycle2025-II/20250340211-lsimonelli/DATA/IS17_D/17_Db_f00139.xye : mythproc.py merge -s 0.006 -l 0.5 -f /beamlines/bl04/inhouse/ff/FlatField/ff_20Nov2024rod8mm60s_17keV.raw -b True -c true -o xye /beamlines/bl04/projects/cycle2025-II/20250340211-lsimonelli/DATA/IS17_D/17_Db_00139.dat
# IsMon = [6763338, 6761517, 6762868]  IsPos = [-1.4999, -2.4883, -3.4988]
# Wave = 0.4962  CalPath /beamlines/bl04/projects/cycle2025-II/20250340211-lsimonelli/DATA/Align/Si_Pos1_25keV_f00001.cal
# Date = 2025-09-25_08:27:47 Dt = 4.8000  Bin = 0.0060  <imon> = 6762574 +/- 772 (Min/Max) 6761517 / 6763338
# icurr 250.7968  mocoIn 1.7109E-05  mocoOut 0.8026  i15 7.08408e+06  imon 6.76257e+06  i7 6.3333  iEMpd_timer 4.8000  iEMpd_1 3.4464E-08  iEMpd_2 7.8165E-08  iEMpd_3 1.6451E-08  iEMpd_4 4.7951E-08  iEMhp_timer 4.8000  iEMhp_1 4.8990E-06  iEMhp_2 -2.5640E-08  iEMhp_3 -2.4157E-08  iEMhp_4 -2.2136E-08
#      9776
 1.7416  69002.6  262.744
 1.9396  48238  219.97
 2.1376  35187.3  187.864
 2.3356  31487.9  177.341
 2.5336  29397.8  171.957
 2.7316  27100.7  165.231
 2.9296  25580  160.68
 3.1276  25205  159.037
 3.3256  24702.4  157.131
 3.5236  25905.2  160.692
 3.7216  23985.6  155.877
 3.9196  23444.6  153.313
 4.1176  23330.7  152.726
 4.3156  24376.3  156.284
 4.5136  26989.7  163.421
 4.7116  27589.5  166.359
 4.9096  26865.6  163.591
 5.1076  26794.9  163.959
 5.3056  26898.2  163.995
 5.5036  26445.6  162.528
 5.7016  27242.2  164.916
 5.8996  27610.7  165.26
 6.0976  28440.2  169.134
 6.2956  28530  168.756
 6.4936  29381.2  170.448
 6.6916  29459.7  171.666
 6.8896  30456.5  174.385
 7.0876  31434.6  177.907
 7.2856  31297.2  176.571
 7.4836  31702.8  177.144
 7.6816  32698.4  180.338
 7.8796  33433.6  182.371
 8.0776  35928.4  190.045
 8.2756  36955.5  191.351
 8.4736  37492.1  192.547
 8.6716  36745  191.242
 8.8696  37916.9  194.761
 9.0676  37031  191.777
 9.2656  35688  188.982
 9.4636  34732.3  184.891
 9.6616  34006.3  183.684
 9.8596  33582.7  181.975
 10.0576  31373.8  176.568
 10.2556  30589  174.798
 10.4536  31701.5  177.525
 10.6516  32742  180.609
 10.8496  28111.7  166.786
 11.0476  27440  164.804
 11.2456  28162.7  167.521
 11.4436  27069.3  163.387
 11.6416  26122  160.838
 11.8396  25233.2  158.289
 12.0376  24580.7  155.869
 12.2356  24813  157.033
 12.4336  24449.7  155.414
 12.6316  24018  154.298
 12.8296  24149.4  154.339
 13.0276  24409  155.375
 13.2256  24454.7  155.881
 13.4236  24482.4  155.741
 13.6216  24678.8  156.353
 13.8196  27124.4  163.383
 14.0176  23824.7  153.715
 14.2156  23433.5  151.472
 14.4136  22343.8  149.292
 14.6116  21972.8  147.249
 14.8096  21218.8  144.681
 15.0076  20339.9  145.54
 15.2056  19454.3  138.154
 15.4036  18444.3  135.345
 15.6016  18040.8  132.953
 15.7996  17737.5  132.095
 15.9976  17400.4  133.753
 16.1956  16924.6  129.771
 16.3936  16572.3  127.598
 16.5916  16628.1  128.471
 16.7896  16537.5  128.18
 16.9876  16374.8  129.006
 17.1856  15964.4  125.772
 17.3836  15458.6  123.669
 17.5816  15355.2  123.729
 17.7796  15372.1  123.734
 17.9776  15067.1  123.278
 18.1756  15503.1  123.77
 18.3736  15326.6  123.555
 18.5716  14533.4  120.067
 18.7696  14774.2  120.614
 18.9676  14491.6  119.245
 19.1656  14085.2  118.162
 19.3636  14035.6  118.155
 19.5616  14080.5  118.507
 19.7596  14296.9  118.813
 19.9576  14732.4  120.647
 20.1556  13889.6  117.671
 20.3536  13681.5  116.173
 20.5516  13393.3  115.38
 20.7496  13180.2  114.394
 20.9476  13308.3  114.702
 21.1456  13129.8  114.27
 21.3436  12893.2  113.176
 21.5416  12734.8  112.492
 21.7396  12742.5  112.37
 21.9376  12568.2  111.373
 22.1356  12820.7  112.611
 22.3336  12450.1  111.26
 22.5316  12436.6  111.292
 22.7296  12189.6  109.56
 22.9276  12171.5  110.131
 23.1256  12562  111.364
 23.3236  12665.3  112.385
 23.5216  12529.1  111.417
 23.7196  12332.4  110.492
 23.9176  12580.9  111.344
 24.1156  12257.7  110.376
 24.3136  12036  110.178
 24.5116  12183.7  110.357
 24.7096  11703.3  107.988
 24.9076  11705  108.016
 25.1056  11356  106.86
 25.3036  11103.1  105.181
 25.5016  11119.5  105.295
 25.6996  11250.6  105.492
 25.8976  11254  105.932
 26.0956  11082.8  105.15
 26.2936  10912.4  104.005
 26.4916  11304.3  105.7
 26.6896  10875.5  103.997
 26.8876  10649.1  102.752
 27.0856  10573  102.449
 27.2836  10388.5  101.5
 27.4816  10278.8  100.842
 27.6796  10275.8  101.19
 27.8776  10630.9  102.775
 28.0756  10176.2  100.851
 28.2736  10173.4  100.405
 28.4716  9872.99  98.9696
 28.6696  9900.45  98.9585
 28.8676  9922.1  99.4207
 29.0656  9776.39  98.6711
 29.2636  9814.04  98.6456
 29.4616  9511.47  97.2994
 29.6596  9559.52  97.1109
 29.8576  9347.58  96.7093
 30.0556  9343.7  96.5694
 30.2536  9263.95  95.9507
 30.4516  9754.17  98.078
 30.6496  9745.53  97.77
 30.8476  9558.84  97.275
 31.0456  9551.76  97.2039
 31.2436  9454.82  95.9654
 31.4416  9379.47  95.7772
 31.6396  9497.59  96.419
 31.8376  9435.86  95.6214
 32.0356  9208.24  95.0414
 32.2336  9335.88  95.092
 32.4316  9021.94  93.8436
 32.6296  9027.91  93.762
 32.8276  9052.08  93.668
 33.0256  8901.93  92.9434
 33.2236  9108.41  94.165
 33.4216  8888.46  92.7079
 33.6196  8830.71  92.7077
 33.8176  8898.26  93.2232
 34.0156  8757.92  92.1129
 34.2136  8846.31  92.5931
 34.4116  8615.19  91.6614
 34.6096  8603.76  91.3624
 34.8076  8576.86  91.6396
 35.0056  8627.11  91.5707
 35.2036  8729.24  92.3444
 35.4016  8409.25  90.5452
 35.5996  8514.66  91.1428
 35.7976  8443.61  91.0361
 35.9956  8665.45  91.872
 36.1936  8515.2  90.9271
 36.3916  8365.27  90.2728
 36.5896  8387.89  91.421
 36.7876  8237.58  89.9995
 36.9856  8025.54  88.8607
 37.1836  8015.99  87.925
 37.3816  8001.68  88.206
 37.5796  8110.73  90.5221
 37.7776  8190.51  89.3251
 37.9756  8188.09  89.1945
 38.1736  8256.19  89.7574
 38.3716  8191.2  89.6834
 38.5696  7944.66  88.7006
 38.7676  7970.24  88.3488
 38.9656  8087.7  88.6137
 39.1636  8056.72  88.7298
 39.3616  8003.87  88.3745
 39.5596  7860.9  88.4101
 39.7576  7916.34  88.1128
 39.9556  7931.56  87.8304
 40.1536  8043.36  88.6449
 40.3516  8093.12  88.931
 40.5496  7941.67  88.3565
 40.7476  8029.98  88.8461
 40.9456  8016.46  88.5316
 41.1436  8101.7  88.7143
 41.3416  7916.67  88.0044
 41.5396  7882.84  87.5913
 41.7376  8012.37  88.632
 41.9356  7974.41  88.2708
 42.1336  8098.54  89.1124
 42.3316  7772.05  87.5036
 42.5296  7946.03  87.9817
 42.7276  7873.37  87.8145
 42.9256  7914.05  87.9224
 43.1236  7748.91  87.1034
 43.3216  7861.86  87.4819
 43.5196  7773.03  87.0516
 43.7176  7751.69  87.3247
 43.9156  7661.14  86.7352
 44.1136  7642.11  86.1819
 44.3116  7580.05  85.8435
 44.5096  7538.79  85.9204
 44.7076  7604.14  86.2163
 44.9056  7646.43  86.3208
 45.1036  7732.24  86.4184
 45.3016  7585.29  86.0993
 45.4996  7684.48  86.5974
 45.6976  7591.92  86.2567
 45.8956  7616.52  86.2101
 46.0936  7677.7  86.507
 46.2916  7541.59  85.7666
 46.4896  7753.99  87.0062
 46.6876  7499.93  86.2629
 46.8856  7524.37  85.6643
 47.0836  7516.67  85.8798
 47.2816  7357.75  84.8527
 47.4796  7540.3  86.0048
 47.6776  7335.51  85.7845
 47.8756  7402.25  85.3374
 48.0736  7416.98  85.8795
 48.2716  7451.58  85.9264
 48.4696  7550.61  86.0674
 48.6676  7416  85.8774
 48.8656  7435.02  85.7094
 49.0636  7503.41  86.0467
 49.2616  7334.57  84.9997
 49.4596  7272.57  84.4535
 49.6576  7374.69  85.125
 49.8556  7279.2  84.591
 50.0536  7268.1  84.9731
 50.2516  7264.78  85.0952
 50.4496  7319.54  85.0604
 50.6476  7362.12  84.9863
 50.8456  7359.05  85.0582
 51.0436  7142.39  84.2544
 51.2416  7080.32  83.5556
 51.4396  7006.28  83.5253
 51.6376  7044.31  83.5725
 51.8356  7063.39  83.2903
 52.0336  7100.45  84.0217
 52.2316  6990.03  83.7361
 52.4296  6941.89  83.1487
 52.6276  6921.44  83.1226
 52.8256  6994.64  83.1287
 53.0236  7089.1  84.341
 53.2216  7005.68  83.8837
 53.4196  6939.26  83.3953
 53.6176  7051.42  84.5725
 53.8156  6812.47  82.7975
 54.0136  6650.78  81.9749
 54.2116  6781.24  82.3989
 54.4096  6649.12  81.6754
 54.6076  6695.19  82.2954
 54.8056  6603.51  81.5079
 55.0036  6537.53  81.5171
 55.2016  6701.49  82.0372
 55.3996  6424.95  80.323
 55.5976  6432.9  80.5733
 55.7956  6501.9  80.7985
 55.9936  6558.98  81.2727
 56.1916  6510.72  81.0148
 56.3896  6269.2  79.4871
 56.5876  6385.67  80.7792
 56.7856  6383.53  80.2553
 56.9836  6353.23  79.8301
 57.1816  6522.23  81.2585
 57.3796  6270.19  79.4946
 57.5776  6359.03  79.9376
 57.7756  6242.56  79.8787
 57.9736  6175.33  79.1188
 58.1716  6151.63  79.2362
 58.3696  6015.03  78.11
 58.5676  6078.34  77.9832
 58.7656  5978.14  78.0158
 58.9636  5951.92  77.8705
 59.1616  6029.96  78.5145
 59.3596  5939.07  77.1846
 59.5576  5956.37  77.353
 59.7556  5948.06  77.7141
 59.9536  5963.45  77.7141
 60.1516  5857.34  77.8555
 60.1996  0.0000000E+00  0.0000000E+00