File: docs/examples/opeando_xrd/IS17_D/Data/IS17_D/17_Db_f00009.xye
# /beamlines/bl04/projects/cycle2025-II/20250340211-lsimonelli/DATA/IS17_D/17_Db_f00009.xye : mythproc.py merge -s 0.006 -l 0.5 -f /beamlines/bl04/inhouse/ff/FlatField/ff_20Nov2024rod8mm60s_17keV.raw -b True -c true -o xye /beamlines/bl04/projects/cycle2025-II/20250340211-lsimonelli/DATA/IS17_D/17_Db_00009.dat
# IsMon = [6741133, 6746270, 6752282]  IsPos = [-1.5000, -2.4885, -3.4988]
# Wave = 0.4962  CalPath /beamlines/bl04/projects/cycle2025-II/20250340211-lsimonelli/DATA/Align/Si_Pos1_25keV_f00001.cal
# Date = 2025-09-23_20:11:50 Dt = 4.8000  Bin = 0.0060  <imon> = 6746562 +/- 4556 (Min/Max) 6741133 / 6752282
# icurr 249.8203  mocoIn 1.7047E-05  mocoOut 0.7996  i15 7.0633e+06  imon 6.74656e+06  i7 7.0000  iEMpd_timer 4.8000  iEMpd_1 3.4785E-08  iEMpd_2 7.8867E-08  iEMpd_3 1.8627E-08  iEMpd_4 4.8236E-08  iEMhp_timer 4.8000  iEMhp_1 4.8817E-06  iEMhp_2 -2.4853E-08  iEMhp_3 -2.2575E-08  iEMhp_4 -2.1202E-08
#      9776
 1.7416  68371.8  261.66
 1.9396  46497  216.055
 2.1376  33643.4  183.781
 2.3356  30097.1  173.46
 2.5336  30811.6  176.125
 2.7316  25788.1  161.214
 2.9296  24049.1  155.826
 3.1276  23713.7  154.307
 3.3256  23090.9  151.92
 3.5236  24783.7  157.346
 3.7216  22462.8  150.846
 3.9196  22647  150.685
 4.1176  22029.4  148.426
 4.3156  23065.7  152.007
 4.5136  26101.7  160.701
 4.7116  26654.2  163.514
 4.9096  25758.8  160.188
 5.1076  25358.7  159.522
 5.3056  25254.4  158.885
 5.5036  25050.5  158.264
 5.7016  25538.5  159.678
 5.8996  25878.4  159.992
 6.0976  26558.5  163.457
 6.2956  26712.7  163.274
 6.4936  27816.8  165.846
 6.6916  27950.5  167.2
 6.8896  29033.3  170.266
 7.0876  30150.1  174.164
 7.2856  29728.7  172.087
 7.4836  30339.5  173.212
 7.6816  31131.2  175.95
 7.8796  31878.3  178.025
 8.0776  35528.2  188.94
 8.2756  35836.4  188.377
 8.4736  35655.7  187.73
 8.6716  35142.9  186.996
 8.8696  36970.9  192.323
 9.0676  36015.1  189.154
 9.2656  33873.1  184.118
 9.4636  32644.2  179.229
 9.6616  31808.8  177.619
 9.8596  31477.1  176.22
 10.0576  29241.5  170.496
 10.2556  28590.1  169.015
 10.4536  32473.6  179.714
 10.6516  33141.6  181.779
 10.8496  26191.5  160.99
 11.0476  25949.9  160.22
 11.2456  28517.4  168.562
 11.4436  25143.1  157.46
 11.6416  24606.3  156.112
 11.8396  23477.2  152.699
 12.0376  22815.4  150.144
 12.2356  24263.7  155.308
 12.4336  23411.8  152.077
 12.6316  22482.4  149.304
 12.8296  23017.1  150.676
 13.0276  23053.3  150.982
 13.2256  23001.3  151.18
 13.4236  23238.1  151.732
 13.6216  23361.7  152.147
 13.8196  26223.6  160.59
 14.0176  22516.1  149.415
 14.2156  21983.3  146.703
 14.4136  20879  144.311
 14.6116  20527.1  142.303
 14.8096  19814.6  139.789
 15.0076  19259  141.64
 15.2056  17956.6  132.703
 15.4036  17432  131.547
 15.6016  16930.1  128.766
 15.7996  16732.7  128.267
 15.9976  16330.9  129.529
 16.1956  16010.3  126.213
 16.3936  15711.7  124.255
 16.5916  15573  124.323
 16.7896  15512.4  124.141
 16.9876  15391.4  125.08
 17.1856  15371.3  123.423
 17.3836  14627.3  120.321
 17.5816  14228.7  119.131
 17.7796  14570.5  120.487
 17.9776  14298.2  120.095
 18.1756  15638  124.304
 18.3736  15204.4  123.064
 18.5716  13678.5  116.484
 18.7696  13688.3  116.106
 18.9676  13549.1  115.318
 19.1656  13183.6  114.306
 19.3636  13148.2  114.355
 19.5616  13184.8  114.675
 19.7596  13355.7  114.849
 19.9576  13797.5  116.754
 20.1556  12998.4  113.815
 20.3536  12887.9  112.746
 20.5516  12496.6  111.449
 20.7496  12491.4  111.297
 20.9476  12966.3  113.239
 21.1456  12742.9  112.558
 21.3436  12277.7  110.446
 21.5416  12190.6  110.068
 21.7396  11963  108.877
 21.9376  12036  108.98
 22.1356  12427.4  111.028
 22.3336  11920.4  108.825
 22.5316  11757.2  108.185
 22.7296  11477.4  106.28
 22.9276  11580.1  107.4
 23.1256  11975.9  108.706
 23.3236  11943.2  109.138
 23.5216  11959.7  108.856
 23.7196  12231.6  110.265
 23.9176  11961.4  108.587
 24.1156  11624.9  107.483
 24.3136  11596.2  108.158
 24.5116  11752.3  108.422
 24.7096  11394.7  106.569
 24.9076  11230.7  105.836
 25.1056  10941.7  104.648
 25.3036  10614.6  102.844
 25.5016  10701.6  103.3
 25.6996  10600.4  102.4
 25.8976  10921.5  104.379
 26.0956  10604.2  102.849
 26.2936  10526  102.14
 26.4916  10669.1  102.691
 26.6896  10466.7  102.013
 26.8876  10196.3  100.562
 27.0856  9994.39  99.5583
 27.2836  9923.82  99.1489
 27.4816  9998.33  99.4536
 27.6796  9739.15  98.5164
 27.8776  10293.2  101.147
 28.0756  9729.31  98.6046
 28.2736  9801.3  98.5628
 28.4716  9467.29  96.9203
 28.6696  9477.75  96.8212
 28.8676  9481.18  97.1811
 29.0656  9271.5  96.078
 29.2636  9333.71  96.1308
 29.4616  8943.25  94.3273
 29.6596  9136.56  94.9197
 29.8576  8820.36  93.9214
 30.0556  9109.78  95.3135
 30.2536  8860.79  93.8185
 30.4516  9205.01  95.2741
 30.6496  9299.73  95.5135
 30.8476  9081.65  94.8238
 31.0456  9071.3  94.7423
 31.2436  9020.69  93.7547
 31.4416  8818.09  92.883
 31.6396  9262.93  95.2416
 31.8376  9185.96  94.3581
 32.0356  9002.47  93.9837
 32.2336  8825.86  92.483
 32.4316  8633.03  91.8435
 32.6296  8539.1  91.1071
 32.8276  8688.07  91.7624
 33.0256  8486.32  90.7495
 33.2236  8619.16  91.6069
 33.4216  8420.84  90.2323
 33.6196  8504.96  90.9799
 33.8176  8421.6  90.6904
 34.0156  8369.55  90.0473
 34.2136  8532.87  90.9425
 34.4116  8165.42  89.1213
 34.6096  8254.05  89.4796
 34.8076  8150.89  89.3348
 35.0056  8168.85  89.1085
 35.2036  8401.52  90.6004
 35.4016  8051.49  88.5936
 35.5996  8017.63  88.4525
 35.7976  8044.02  88.8458
 35.9956  8183.68  89.2744
 36.1936  8171.28  89.0541
 36.3916  8004.97  88.3472
 36.5896  8217.03  90.9692
 36.7876  7828.71  87.7198
 36.9856  7636.32  86.6593
 37.1836  7797.43  86.6989
 37.3816  7611.57  85.997
 37.5796  7739.84  88.434
 37.7776  7827.45  87.3392
 37.9756  7770.72  86.9109
 38.1736  7993.3  88.3261
 38.3716  7870.77  87.9086
 38.5696  7662.24  87.1014
 38.7676  7658.01  86.6188
 38.9656  7692.32  86.4506
 39.1636  7711.97  86.7964
 39.3616  7651.02  86.4169
 39.5596  7493.02  86.3246
 39.7576  7614.39  86.4168
 39.9556  7557.07  85.7396
 40.1536  7694.98  86.7048
 40.3516  7656.93  86.5056
 40.5496  7707.72  86.8354
 40.7476  7718.6  87.1069
 40.9456  7728.51  86.9243
 41.1436  7768.47  86.886
 41.3416  7539.41  85.9037
 41.5396  7580.6  85.9579
 41.7376  7617.88  86.4154
 41.9356  7552.66  85.909
 42.1336  7659.79  86.6671
 42.3316  7437.37  85.5845
 42.5296  7615.73  86.1382
 42.7276  7693.54  86.8102
 42.9256  7513.89  85.6742
 43.1236  7425.29  85.2623
 43.3216  7585.85  86.0387
 43.5196  7485.97  85.4284
 43.7176  7416.6  85.4185
 43.9156  7181.64  83.9618
 44.1136  7244.44  83.8902
 44.3116  7229.98  83.8086
 44.5096  7144.37  83.6234
 44.7076  7443.15  85.2827
 44.9056  7479.65  85.3767
 45.1036  7394.04  84.5139
 45.3016  7321.55  84.5806
 45.4996  7330.46  84.5849
 45.6976  7181.58  83.8835
 45.8956  7220.02  83.9557
 46.0936  7408.86  84.8051
 46.2916  7221.11  83.9377
 46.4896  7435.37  85.1955
 46.6876  7091.43  83.9119
 46.8856  7287.42  84.3066
 47.0836  7189.16  84.0021
 47.2816  7082.26  83.2481
 47.4796  7151.35  83.7552
 47.6776  7079.74  84.269
 47.8756  7169.02  83.9733
 48.0736  7134.72  84.2291
 48.2716  7071.76  83.6718
 48.4696  7086.76  83.3473
 48.6676  7140.27  84.2627
 48.8656  7182.24  84.235
 49.0636  7313.92  84.9638
 49.2616  7079.5  83.6149
 49.4596  7125.39  83.4396
 49.6576  7028.24  83.1043
 49.8556  7030.08  83.1336
 50.0536  7061.39  83.7649
 50.2516  7058.26  83.8559
 50.4496  7084.49  83.6892
 50.6476  7028.87  83.0373
 50.8456  7084.15  83.4551
 51.0436  6770.67  82.0122
 51.2416  6802.62  81.8768
 51.4396  6672.81  81.4951
 51.6376  6757.82  81.8395
 51.8356  6710.3  81.1766
 52.0336  6769.93  82.0437
 52.2316  6861.79  82.9755
 52.4296  6715.5  81.775
 52.6276  6640.98  81.4278
 52.8256  6723.96  81.5074
 53.0236  6785.89  82.53
 53.2216  6644.36  81.6765
 53.4196  6798.41  82.5534
 53.6176  6694.19  82.4203
 53.8156  6789.21  82.6713
 54.0136  6400.6  80.413
 54.2116  6489.2  80.6175
 54.4096  6311.66  79.5567
 54.6076  6398.15  80.4632
 54.8056  6321.89  79.7586
 55.0036  6439.16  80.7595
 55.2016  6274.95  79.3042
 55.3996  6147.2  78.5583
 55.5976  6299.02  79.7137
 55.7956  6207.16  78.9522
 55.9936  6234  79.2494
 56.1916  6125.46  78.5821
 56.3896  6071.43  78.2228
 56.5876  6036.81  78.5297
 56.7856  6006.17  77.8462
 56.9836  6162.6  78.6235
 57.1816  6259.29  79.6163
 57.3796  6021.16  77.9093
 57.5776  6045.96  77.9546
 57.7756  5926.57  77.8365
 57.9736  6026.77  78.1555
 58.1716  5880.76  77.4581
 58.3696  5774.39  76.5176
 58.5676  5849.12  76.4883
 58.7656  5714.89  76.262
 58.9636  5734.56  76.4216
 59.1616  5728.66  76.5102
 59.3596  5760.4  75.9836
 59.5576  5734.76  75.8699
 59.7556  5664.81  75.8106
 59.9536  5879.74  77.1356
 60.1516  5656.65  76.4793
 60.1996  0.0000000E+00  0.0000000E+00