File: docs/examples/opeando_xrd/IS17_D/Data/IS17_D/17_Da_f00140.xye
# /beamlines/bl04/projects/cycle2025-II/20250340211-lsimonelli/DATA/IS17_D/17_Da_f00140.xye : mythproc.py merge -s 0.006 -l 0.5 -f /beamlines/bl04/inhouse/ff/FlatField/ff_20Nov2024rod8mm60s_17keV.raw -b True -c true -o xye /beamlines/bl04/projects/cycle2025-II/20250340211-lsimonelli/DATA/IS17_D/17_Da_00140.dat
# IsMon = [6744633, 6744547, 6745755]  IsPos = [-1.4999, -2.4884, -3.4988]
# Wave = 0.4962  CalPath /beamlines/bl04/projects/cycle2025-II/20250340211-lsimonelli/DATA/Align/Si_Pos1_25keV_f00001.cal
# Date = 2025-09-25_08:36:02 Dt = 4.8000  Bin = 0.0060  <imon> = 6744978 +/- 550 (Min/Max) 6744547 / 6745755
# icurr 248.8834  mocoIn 1.6998E-05  mocoOut 0.7972  i15 7.06363e+06  imon 6.74498e+06  i7 5.6667  iEMpd_timer 4.8000  iEMpd_1 3.5700E-08  iEMpd_2 7.8076E-08  iEMpd_3 1.7272E-08  iEMpd_4 4.8111E-08  iEMhp_timer 4.8000  iEMhp_1 4.8644E-06  iEMhp_2 -2.5164E-08  iEMhp_3 -2.3491E-08  iEMhp_4 -2.1619E-08
#      9776
 1.7416  68781.1  262.343
 1.9396  45263.9  213.096
 2.1376  31983.8  179.123
 2.3356  28718.9  169.378
 2.5336  26988.8  164.775
 2.7316  25052.2  158.864
 2.9296  24222.5  156.375
 3.1276  23564.7  153.781
 3.3256  23221.2  152.337
 3.5236  25030.4  157.965
 3.7216  22854.9  152.166
 3.9196  22533  150.328
 4.1176  22392.8  149.629
 4.3156  23607  153.798
 4.5136  26298.4  161.314
 4.7116  27064.9  164.777
 4.9096  26389.7  162.147
 5.1076  26013.6  161.561
 5.3056  26324.7  162.258
 5.5036  26204.8  161.785
 5.7016  26765.2  163.472
 5.8996  27373.3  164.538
 6.0976  28010.3  167.869
 6.2956  28520  168.73
 6.4936  29361.9  170.392
 6.6916  29632.5  172.173
 6.8896  30367.1  174.156
 7.0876  31337.1  177.638
 7.2856  31248.5  176.448
 7.4836  31767.1  177.241
 7.6816  32677.3  180.301
 7.8796  33895.3  183.623
 8.0776  36472.2  191.467
 8.2756  37773.9  193.451
 8.4736  38306.5  194.615
 8.6716  37619.7  193.502
 8.8696  38100.7  195.22
 9.0676  37021.5  191.781
 9.2656  35932.1  189.635
 9.4636  35237.9  186.19
 9.6616  34578.7  185.223
 9.8596  33093.3  180.676
 10.0576  31362.1  176.548
 10.2556  30251.5  173.832
 10.4536  31556.2  177.133
 10.6516  32457.4  179.846
 10.8496  28089.3  166.717
 11.0476  27750.5  165.735
 11.2456  28025  167.105
 11.4436  27145.2  163.615
 11.6416  26377.8  161.649
 11.8396  25056.8  157.751
 12.0376  24713.8  156.303
 12.2356  24970.1  157.528
 12.4336  24546.1  155.728
 12.6316  23892.2  153.901
 12.8296  24332.2  154.951
 13.0276  24942.2  157.062
 13.2256  24632.8  156.441
 13.4236  24713.8  156.475
 13.6216  24467.8  155.709
 13.8196  24834.2  156.636
 14.0176  24214.4  154.96
 14.2156  23773.9  152.577
 14.4136  22279.4  149.067
 14.6116  22011.8  147.387
 14.8096  21432.7  145.418
 15.0076  20514.5  146.102
 15.2056  19968.2  139.964
 15.4036  19069.1  137.597
 15.6016  18610  135.023
 15.7996  18173.9  133.712
 15.9976  17398  133.765
 16.1956  16830  129.442
 16.3936  16508.1  127.38
 16.5916  16598.7  128.359
 16.7896  16417.8  127.718
 16.9876  16278.2  128.653
 17.1856  16028.4  126.024
 17.3836  15447.8  123.623
 17.5816  15254.9  123.333
 17.7796  15136  122.784
 17.9776  15086.5  123.376
 18.1756  15497  123.729
 18.3736  15283.2  123.388
 18.5716  14775  121.069
 18.7696  14619.3  119.996
 18.9676  14202.7  118.083
 19.1656  14240.2  118.788
 19.3636  14214.2  118.895
 19.5616  14206  119.024
 19.7596  14201.6  118.414
 19.9576  14782.2  120.864
 20.1556  14081.6  118.49
 20.3536  13586  115.77
 20.5516  13576.4  116.171
 20.7496  13272.9  114.804
 20.9476  13213.7  114.3
 21.1456  13398.8  115.428
 21.3436  12960.9  113.478
 21.5416  12874.9  113.103
 21.7396  12852.5  112.849
 21.9376  12978.3  113.169
 22.1356  13003.6  113.404
 22.3336  12818.5  112.89
 22.5316  12735.5  112.599
 22.7296  12767.6  112.115
 22.9276  12723.9  112.597
 23.1256  12964.5  113.124
 23.3236  12617.5  112.153
 23.5216  12702.6  112.188
 23.7196  12611.2  111.732
 23.9176  12347.2  110.313
 24.1156  12254.1  110.369
 24.3136  11893.7  109.526
 24.5116  11939.3  109.265
 24.7096  11696.9  107.966
 24.9076  11387.9  106.556
 25.1056  11192.9  106.103
 25.3036  11238.2  105.823
 25.5016  11231.5  105.823
 25.6996  11233.8  105.41
 25.8976  11162.3  105.522
 26.0956  11207.7  105.746
 26.2936  11064.8  104.722
 26.4916  11105.5  104.789
 26.6896  10786.4  103.574
 26.8876  10712  103.066
 27.0856  10770.9  103.396
 27.2836  10433  101.661
 27.4816  10503.2  101.932
 27.6796  10391.3  101.77
 27.8776  10352.5  101.437
 28.0756  10292.9  101.425
 28.2736  10173.7  100.421
 28.4716  9931.33  99.2673
 28.6696  10094.7  99.9239
 28.8676  9845.06  99.0342
 29.0656  9778.94  98.6763
 29.2636  9856.96  98.8637
 29.4616  9645.43  97.9796
 29.6596  9773.51  98.1911
 29.8576  9594.06  97.9715
 30.0556  9711.4  98.4399
 30.2536  9706.08  98.2109
 30.4516  9606.37  97.3573
 30.6496  9543.75  96.7645
 30.8476  9554.89  97.2635
 31.0456  9381.17  96.3373
 31.2436  9450.74  95.9615
 31.4416  9136.42  94.5292
 31.6396  9360.11  95.7289
 31.8376  9409.44  95.5223
 32.0356  9220.31  95.1209
 32.2336  9143.96  94.1146
 32.4316  9054.39  94.0597
 32.6296  9114.34  94.2057
 32.8276  9036.05  93.5803
 33.0256  8946.57  93.1883
 33.2236  8938.78  93.2922
 33.4216  9037.73  93.4998
 33.6196  8945.97  93.3159
 33.8176  8975.87  93.6327
 34.0156  8832.71  92.4862
 34.2136  8747.22  92.0909
 34.4116  8679.39  91.8886
 34.6096  8749.44  92.1293
 34.8076  8568.43  91.5892
 35.0056  8627.48  91.5877
 35.2036  8608.03  91.6908
 35.4016  8538.94  91.2493
 35.5996  8529.78  91.2342
 35.7976  8369.62  90.6507
 35.9956  8451.09  90.7323
 36.1936  8466.43  90.6844
 36.3916  8360.32  90.2896
 36.5896  8373.99  91.3345
 36.7876  8342.3  90.5701
 36.9856  8151.24  89.5549
 37.1836  8267.04  89.2884
 37.3816  8241.61  89.5125
 37.5796  8154.11  90.7616
 37.7776  8001.98  88.2905
 37.9756  8045.69  88.4149
 38.1736  8299.77  90.0046
 38.3716  8180.1  89.6244
 38.5696  8008.65  89.0654
 38.7676  7764.33  87.2059
 38.9656  7942.96  87.8401
 39.1636  7929.39  88.0243
 39.3616  8000.36  88.3513
 39.5596  7949.31  88.9156
 39.7576  7865.6  87.8202
 39.9556  7918.27  87.7562
 40.1536  8070.69  88.8029
 40.3516  7994.1  88.3862
 40.5496  7946.37  88.3836
 40.7476  7993.28  88.6566
 40.9456  8143.5  89.2255
 41.1436  8010.85  88.2206
 41.3416  7933.32  88.1278
 41.5396  7952.07  88.0423
 41.7376  7972.64  88.4126
 41.9356  7935.84  88.0731
 42.1336  7967.42  88.3981
 42.3316  7887.83  88.151
 42.5296  8024.44  88.4259
 42.7276  7908.78  88.0269
 42.9256  7781.98  87.189
 43.1236  7786.95  87.324
 43.3216  7754.83  86.8916
 43.5196  7618.59  86.1902
 43.7176  7692.66  86.998
 43.9156  7649.58  86.6642
 44.1136  7557.24  85.6965
 44.3116  7574.95  85.8133
 44.5096  7551.48  85.9891
 44.7076  7599.69  86.1918
 44.9056  7490.04  85.4344
 45.1036  7526.99  85.2723
 45.3016  7426.18  85.197
 45.4996  7362.05  84.7675
 45.6976  7297.98  84.5683
 45.8956  7392.95  84.9395
 46.0936  7456.58  85.3099
 46.2916  7370.33  84.7919
 46.4896  7383.57  84.907
 46.6876  7216.14  84.6357
 46.8856  7186.74  83.7268
 47.0836  7181.54  83.9512
 47.2816  7151.1  83.6524
 47.4796  7140.97  83.6982
 47.6776  7065.68  84.1942
 47.8756  7166.24  83.9652
 48.0736  7090.95  83.9756
 48.2716  6896.03  82.6347
 48.4696  7102.97  83.4627
 48.6676  6945.07  83.1012
 48.8656  6986.38  83.0761
 49.0636  7050.45  83.4058
 49.2616  6847.43  82.2308
 49.4596  6886.16  82.0344
 49.6576  6877.94  82.2089
 49.8556  6873.2  82.2
 50.0536  6871.03  82.6303
 50.2516  6826.66  82.481
 50.4496  6768.84  81.8044
 50.6476  6844.71  81.9476
 50.8456  6748.01  81.4459
 51.0436  6641.04  81.2407
 51.2416  6674.66  81.1171
 51.4396  6546.8  80.732
 51.6376  6586.51  80.8057
 51.8356  6560.38  80.2809
 52.0336  6457.75  80.1472
 52.2316  6344.7  79.7835
 52.4296  6550.31  80.7627
 52.6276  6451.48  80.2583
 52.8256  6485.41  80.0338
 53.0236  6372.95  79.9755
 53.2216  6388.6  80.1102
 53.4196  6254.02  79.1803
 53.6176  6283.61  79.8459
 53.8156  6298.32  79.6094
 54.0136  6372.87  80.2596
 54.2116  6374.85  79.9284
 54.4096  6388.65  80.0665
 54.6076  6268.64  79.6611
 54.8056  6132.24  78.5797
 55.0036  6199.91  79.4005
 55.2016  6213.64  79.0369
 55.3996  6236.2  79.15
 55.5976  6277.91  79.6031
 55.7956  6259.5  79.3
 55.9936  6165.73  78.8368
 56.1916  6282.36  79.6023
 56.3896  6198.99  79.063
 56.5876  6176.8  79.4668
 56.7856  6160.38  78.8459
 56.9836  6040.56  77.8618
 57.1816  6195.82  79.2386
 57.3796  6176.1  78.9087
 57.5776  6144.71  78.6406
 57.7756  6125.95  79.156
 57.9736  6209.05  79.3611
 58.1716  6156  79.2637
 58.3696  6088.44  78.5758
 58.5676  6091.67  78.0698
 58.7656  6207  79.4899
 58.9636  6337.43  80.3527
 59.1616  6185.7  79.5167
 59.3596  6227.4  79.0265
 59.5576  6152.02  78.6103
 59.7556  6112.08  78.7754
 59.9536  6228.6  79.4201
 60.1516  6326.48  80.9104
 60.1996  0.0000000E+00  0.0000000E+00