File: docs/examples/opeando_xrd/IS17_D/Data/IS17_D/17_Db_f00028.xye
# /beamlines/bl04/projects/cycle2025-II/20250340211-lsimonelli/DATA/IS17_D/17_Db_f00028.xye : mythproc.py merge -s 0.006 -l 0.5 -f /beamlines/bl04/inhouse/ff/FlatField/ff_20Nov2024rod8mm60s_17keV.raw -b True -c true -o xye /beamlines/bl04/projects/cycle2025-II/20250340211-lsimonelli/DATA/IS17_D/17_Db_00028.dat
# IsMon = [6754193, 6756711, 6753307]  IsPos = [-1.4999, -2.4886, -3.4988]
# Wave = 0.4962  CalPath /beamlines/bl04/projects/cycle2025-II/20250340211-lsimonelli/DATA/Align/Si_Pos1_25keV_f00001.cal
# Date = 2025-09-24_01:29:11 Dt = 4.8000  Bin = 0.0060  <imon> = 6754737 +/- 1442 (Min/Max) 6753307 / 6756711
# icurr 250.4615  mocoIn 1.7093E-05  mocoOut 0.8017  i15 7.07689e+06  imon 6.75474e+06  i7 5.0000  iEMpd_timer 4.8000  iEMpd_1 3.6570E-08  iEMpd_2 7.6198E-08  iEMpd_3 1.7129E-08  iEMpd_4 4.7882E-08  iEMhp_timer 4.8000  iEMhp_1 4.8940E-06  iEMhp_2 -2.5155E-08  iEMhp_3 -2.3736E-08  iEMhp_4 -2.2277E-08
#      9776
 1.7416  70001.5  264.664
 1.9396  47893.1  219.202
 2.1376  34518.3  186.088
 2.3356  31113.6  176.301
 2.5336  28993.8  170.788
 2.7316  26637.4  163.803
 2.9296  25479.5  160.357
 3.1276  24871.3  157.978
 3.3256  24097.6  155.154
 3.5236  26007.6  161.138
 3.7216  23474.6  154.208
 3.9196  22978  151.777
 4.1176  23084.6  151.92
 4.3156  23958.8  154.943
 4.5136  26375.1  161.541
 4.7116  27290.6  165.455
 4.9096  26631.7  162.883
 5.1076  26627.2  163.448
 5.3056  26506  162.933
 5.5036  26280.5  162.101
 5.7016  26809.2  163.604
 5.8996  27287.8  164.291
 6.0976  28128.3  168.208
 6.2956  28181.5  167.717
 6.4936  28840.4  168.863
 6.6916  28978.9  170.253
 6.8896  29854  172.646
 7.0876  30720  175.874
 7.2856  30389.1  173.987
 7.4836  30935.1  174.893
 7.6816  31628.5  177.347
 7.8796  32437  179.62
 8.0776  33654  183.923
 8.2756  35265.9  186.932
 8.4736  35831.1  188.225
 8.6716  35163.9  187.066
 8.8696  35759.3  189.159
 9.0676  35117.5  186.789
 9.2656  33985.5  184.436
 9.4636  33026.7  180.313
 9.6616  32204.9  178.767
 9.8596  31900.7  177.346
 10.0576  30306.2  173.157
 10.2556  28994  170.162
 10.4536  28543.6  168.44
 10.6516  27828.2  166.524
 10.8496  26550.5  162.09
 11.0476  25466.5  158.711
 11.2456  24827.9  157.731
 11.4436  25413  158.313
 11.6416  24984.5  157.306
 11.8396  23892  154.024
 12.0376  23345.3  151.89
 12.2356  23060.7  151.414
 12.4336  23022.7  150.812
 12.6316  22799.8  150.335
 12.8296  22882.3  150.228
 13.0276  23274.4  151.717
 13.2256  23408.2  152.507
 13.4236  23340.6  152.059
 13.6216  23530.6  152.675
 13.8196  25394.5  157.902
 14.0176  22751.9  150.259
 14.2156  22454.3  148.264
 14.4136  21430.3  146.204
 14.6116  20941.8  143.749
 14.8096  20235.6  141.288
 15.0076  19465.3  142.387
 15.2056  18456.3  134.559
 15.4036  17703.9  132.597
 15.6016  17307.2  130.215
 15.7996  16845.6  128.734
 15.9976  16702.8  131.02
 16.1956  16232.7  127.106
 16.3936  15994.3  125.362
 16.5916  15748.9  125.031
 16.7896  15672.9  124.799
 16.9876  15578.9  125.825
 17.1856  15529.4  123.91
 17.3836  14969.8  121.69
 17.5816  14612.5  120.693
 17.7796  14664.1  120.845
 17.9776  14183.8  119.613
 18.1756  14222.9  118.464
 18.3736  14148.5  118.709
 18.5716  13802.8  117.004
 18.7696  13917.8  117.076
 18.9676  13797.2  116.365
 19.1656  13378.7  115.336
 19.3636  13271.6  114.983
 19.5616  13346.7  115.377
 19.7596  13605.9  115.906
 19.9576  13847.8  116.972
 20.1556  13607.4  116.462
 20.3536  13047.1  113.436
 20.5516  12831  112.92
 20.7496  12567.4  111.708
 20.9476  12588.5  111.565
 21.1456  12434.2  111.189
 21.3436  12440.5  111.175
 21.5416  12324.4  110.667
 21.7396  12133.4  109.65
 21.9376  12105.3  109.305
 22.1356  12169.3  109.705
 22.3336  11884.4  108.68
 22.5316  11846.7  108.616
 22.7296  11991.1  108.658
 22.9276  11893  108.859
 23.1256  11968.1  108.7
 23.3236  12202.5  110.326
 23.5216  12059.1  109.306
 23.7196  11979.4  108.911
 23.9176  12242.5  109.847
 24.1156  11852.2  108.532
 24.3136  11620.2  108.25
 24.5116  11607.5  107.724
 24.7096  11156.1  105.412
 24.9076  11199.9  105.664
 25.1056  10711  103.512
 25.3036  10613.9  102.901
 25.5016  10589.5  102.756
 25.6996  10466.7  101.751
 25.8976  10675.3  103.192
 26.0956  10405.3  101.891
 26.2936  10431.3  101.677
 26.4916  10696.5  102.834
 26.6896  10362.3  101.496
 26.8876  10316.3  101.135
 27.0856  10093.8  100.055
 27.2836  9941.64  99.2313
 27.4816  9772.38  98.3261
 27.6796  9866.19  99.1559
 27.8776  10004.8  99.6938
 28.0756  9718.18  98.5557
 28.2736  9717.56  98.1371
 28.4716  9575.88  97.4747
 28.6696  9629.5  97.5965
 28.8676  9519.7  97.3828
 29.0656  9218.77  95.8083
 29.2636  9366.3  96.2886
 29.4616  9012.85  94.7115
 29.6596  9055.73  94.5156
 29.8576  8913.96  94.4354
 30.0556  8902.59  94.2643
 30.2536  8991.59  94.5233
 30.4516  9227.66  95.4137
 30.6496  9198.18  94.9972
 30.8476  9082.15  94.8209
 31.0456  9069.87  94.726
 31.2436  9092.7  94.1163
 31.4416  9000.86  93.8117
 31.6396  9007.24  93.8935
 31.8376  9066.73  93.7149
 32.0356  8924.72  93.5525
 32.2336  8945.08  93.079
 32.4316  8592.63  91.6252
 32.6296  8605.8  91.4725
 32.8276  8689.25  91.769
 33.0256  8491.02  90.7766
 33.2236  8617.33  91.5879
 33.4216  8519.27  90.7966
 33.6196  8440.98  90.671
 33.8176  8409.02  90.6298
 34.0156  8385.8  90.1354
 34.2136  8500.46  90.7705
 34.4116  8217.55  89.4128
 34.6096  8216.3  89.2785
 34.8076  8140.5  89.2782
 35.0056  8215.1  89.3501
 35.2036  8375.91  90.4476
 35.4016  8160.01  89.1922
 35.5996  8051.3  88.6322
 35.7976  8070.07  88.9963
 35.9956  8236.24  89.5677
 36.1936  8117.09  88.7821
 36.3916  8033.85  88.5088
 36.5896  8044.6  90.0021
 36.7876  7725.5  87.1582
 36.9856  7693.82  86.9956
 37.1836  7698.86  86.1634
 37.3816  7801.25  87.0959
 37.5796  7781.14  88.6665
 37.7776  7840.96  87.4066
 37.9756  7961.44  87.9558
 38.1736  7843.05  87.4916
 38.3716  7778.12  87.3997
 38.5696  7658.06  87.0823
 38.7676  7565.59  86.0713
 38.9656  7866.36  87.396
 39.1636  7698.27  86.6944
 39.3616  7591.44  86.0545
 39.5596  7508.68  86.4063
 39.7576  7552.11  86.064
 39.9556  7659.02  86.3143
 40.1536  7754.78  87.046
 40.3516  7686.1  86.6691
 40.5496  7630.51  86.4017
 40.7476  7717.89  87.1027
 40.9456  7762.19  87.0998
 41.1436  7817.69  87.1438
 41.3416  7469.59  85.5115
 41.5396  7607.4  86.1076
 41.7376  7571.96  86.1571
 41.9356  7549.8  85.8922
 42.1336  7716.18  86.9767
 42.3316  7518.23  86.0519
 42.5296  7563.16  85.8401
 42.7276  7566.3  86.0983
 42.9256  7521.45  85.7159
 43.1236  7473.52  85.5346
 43.3216  7566.93  85.9276
 43.5196  7468.85  85.2837
 43.7176  7427.49  85.4786
 43.9156  7182.61  83.9802
 44.1136  7160.48  83.4163
 44.3116  7308.02  84.2883
 44.5096  7182.08  83.8583
 44.7076  7298.97  84.4491
 44.9056  7311.26  84.4161
 45.1036  7301.36  83.9808
 45.3016  7313.05  84.5448
 45.4996  7372.67  84.8282
 45.6976  7184.18  83.9134
 45.8956  7245.5  84.0778
 46.0936  7356.28  84.7237
 46.2916  7313.17  84.4522
 46.4896  7338.8  84.6358
 46.6876  7199.88  84.5359
 46.8856  7222.03  83.9374
 47.0836  7186.26  83.9758
 47.2816  7113.38  83.4228
 47.4796  7312.89  84.6967
 47.6776  7048.35  84.0916
 47.8756  7077.09  83.4329
 48.0736  7151.26  84.3276
 48.2716  6965.64  83.0454
 48.4696  7162.52  83.8023
 48.6676  7184.06  84.5211
 48.8656  7138.29  83.9731
 49.0636  7181.58  84.1807
 49.2616  6971.17  82.9773
 49.4596  7122.56  83.4179
 49.6576  7113.63  83.5891
 49.8556  7171.68  83.9633
 50.0536  7006.18  83.4314
 50.2516  6986.84  83.4312
 50.4496  7007.9  83.1793
 50.6476  7061.36  83.23
 50.8456  6930.8  82.533
 51.0436  6711.39  81.6693
 51.2416  6828.8  82.0582
 51.4396  6649.18  81.3651
 51.6376  6815.78  82.1951
 51.8356  6813.21  81.7143
 52.0336  6797.89  82.2308
 52.2316  6881.52  83.0997
 52.4296  6721.27  81.8294
 52.6276  6705.05  81.8286
 52.8256  6685.32  81.2784
 53.0236  6781.97  82.488
 53.2216  6864.69  83.1863
 53.4196  6669.37  81.7557
 53.6176  6680.54  82.3046
 53.8156  6749.11  82.3989
 54.0136  6452.92  80.7536
 54.2116  6520.22  80.7993
 54.4096  6393.8  80.0949
 54.6076  6380.17  80.3401
 54.8056  6433.15  80.4588
 55.0036  6298.79  80.0125
 55.2016  6441.92  80.4367
 55.3996  6132.69  78.4748
 55.5976  6270.9  79.541
 55.7956  6181.59  78.7831
 55.9936  6338.67  79.9009
 56.1916  6127.92  78.5976
 56.3896  6086.74  78.313
 56.5876  6031.95  78.4861
 56.7856  6072.68  78.2837
 56.9836  6178.88  78.725
 57.1816  6111.17  78.6628
 57.3796  6059.49  78.146
 57.5776  6078.1  78.1525
 57.7756  5920.47  77.7985
 57.9736  6000.07  77.9831
 58.1716  5938.88  77.8509
 58.3696  5694.83  75.9959
 58.5676  5676.72  75.376
 58.7656  5845.47  77.1394
 58.9636  5710.35  76.2759
 59.1616  5728.15  76.519
 59.3596  5662.95  75.3784
 59.5576  5693.05  75.6335
 59.7556  5632.4  75.6335
 59.9536  5741.78  76.2657
 60.1516  5686.8  76.7235
 60.1996  0.0000000E+00  0.0000000E+00