File: docs/examples/opeando_xrd/IS17_D/Data/IS17_D/17_Db_f00101.xye
# /beamlines/bl04/projects/cycle2025-II/20250340211-lsimonelli/DATA/IS17_D/17_Db_f00101.xye : mythproc.py merge -s 0.006 -l 0.5 -f /beamlines/bl04/inhouse/ff/FlatField/ff_20Nov2024rod8mm60s_17keV.raw -b True -c true -o xye /beamlines/bl04/projects/cycle2025-II/20250340211-lsimonelli/DATA/IS17_D/17_Db_00101.dat
# IsMon = [6751507, 6750737, 6754599]  IsPos = [-1.5000, -2.4884, -3.4988]
# Wave = 0.4962  CalPath /beamlines/bl04/projects/cycle2025-II/20250340211-lsimonelli/DATA/Align/Si_Pos1_25keV_f00001.cal
# Date = 2025-09-24_21:50:35 Dt = 4.8000  Bin = 0.0060  <imon> = 6752281 +/- 1669 (Min/Max) 6750737 / 6754599
# icurr 250.0390  mocoIn 1.7054E-05  mocoOut 0.8001  i15 7.07945e+06  imon 6.75228e+06  i7 7.0000  iEMpd_timer 4.8000  iEMpd_1 3.3775E-08  iEMpd_2 7.7746E-08  iEMpd_3 1.8429E-08  iEMpd_4 4.8487E-08  iEMhp_timer 4.8000  iEMhp_1 4.8830E-06  iEMhp_2 -2.5612E-08  iEMhp_3 -2.4149E-08  iEMhp_4 -2.1721E-08
#      9776
 1.7416  70324.7  265.279
 1.9396  48987.5  221.698
 2.1376  36092.9  190.288
 2.3356  32490.3  180.162
 2.5336  30174  174.232
 2.7316  27832.5  167.46
 2.9296  26761.1  164.366
 3.1276  26167.1  162.051
 3.3256  25224  158.775
 3.5236  26499.9  162.537
 3.7216  24232.1  156.675
 3.9196  23808.7  154.495
 4.1176  23750.9  154.103
 4.3156  24608.6  157.024
 4.5136  26954.8  163.317
 4.7116  27909.1  167.314
 4.9096  27316.7  164.962
 5.1076  27042.4  164.72
 5.3056  26956.8  164.172
 5.5036  26651.6  163.162
 5.7016  27148.7  164.636
 5.8996  27680.4  165.468
 6.0976  28518.9  169.361
 6.2956  28741  169.377
 6.4936  29432.9  170.597
 6.6916  29713.2  172.395
 6.8896  30519.5  174.562
 7.0876  31649.6  178.431
 7.2856  31307.7  176.593
 7.4836  31647.8  176.901
 7.6816  32392.3  179.494
 7.8796  33046.1  181.299
 8.0776  34680.2  186.704
 8.2756  36245.8  189.492
 8.4736  36461.8  189.873
 8.6716  35959.9  189.188
 8.8696  36457.1  190.972
 9.0676  35905.7  188.85
 9.2656  34823.5  186.676
 9.4636  33999.4  182.918
 9.6616  33360  181.91
 9.8596  32565  179.207
 10.0576  30459  173.978
 10.2556  29536.2  171.766
 10.4536  28532  168.427
 10.6516  27920.7  166.825
 10.8496  26869.4  163.06
 11.0476  26112.2  160.766
 11.2456  25175  158.383
 11.4436  25455.6  158.44
 11.6416  26331.3  161.485
 11.8396  24379.8  155.589
 12.0376  23925.7  153.774
 12.2356  23512.1  152.86
 12.4336  23388.3  152.005
 12.6316  23425.5  152.386
 12.8296  23315.3  151.653
 13.0276  23609  152.804
 13.2256  24184.9  155.025
 13.4236  23828.2  153.648
 13.6216  24150.9  154.673
 13.8196  26427.2  161.287
 14.0176  23253.5  151.856
 14.2156  22845.9  149.559
 14.4136  21788.5  147.424
 14.6116  21419.4  145.374
 14.8096  20909.8  143.607
 15.0076  20021.1  144.403
 15.2056  18913.2  136.215
 15.4036  17959.5  133.549
 15.6016  17805.6  132.076
 15.7996  17333.2  130.568
 15.9976  17183.3  132.893
 16.1956  16732.4  129.028
 16.3936  16390.1  126.898
 16.5916  16142.8  126.576
 16.7896  15994.6  126.046
 16.9876  15944.6  127.308
 17.1856  15820.9  125.214
 17.3836  15507.6  123.872
 17.5816  14971.8  122.183
 17.7796  14826.9  121.532
 17.9776  14371.2  120.399
 18.1756  14417.8  119.356
 18.3736  14084.6  118.44
 18.5716  13955.8  117.659
 18.7696  14059.9  117.665
 18.9676  13893.3  116.765
 19.1656  13613.6  116.163
 19.3636  13505.4  115.898
 19.5616  13551.3  116.257
 19.7596  13667.3  116.163
 19.9576  13898.7  117.186
 20.1556  14488  120.176
 20.3536  13681.6  116.172
 20.5516  13278.3  114.882
 20.7496  12960.2  113.349
 20.9476  12983.7  113.302
 21.1456  12786.3  112.761
 21.3436  12621.6  111.982
 21.5416  12460.3  111.278
 21.7396  12326.8  110.525
 21.9376  12363.9  110.461
 22.1356  12526  111.461
 22.3336  12156.1  109.938
 22.5316  12189.6  110.175
 22.7296  12196.3  109.585
 22.9276  12051.8  109.584
 23.1256  12070.2  109.151
 23.3236  12467.1  111.501
 23.5216  12296.3  110.37
 23.7196  12449.6  111.228
 23.9176  12301.4  110.101
 24.1156  12089.2  109.596
 24.3136  11720.4  108.725
 24.5116  12010.4  109.589
 24.7096  11365  106.4
 24.9076  11380.2  106.524
 25.1056  10996.7  105.169
 25.3036  10876.3  104.103
 25.5016  10878.4  104.15
 25.6996  10792.1  103.319
 25.8976  10792.2  103.751
 26.0956  10655.8  103.105
 26.2936  10698.9  102.976
 26.4916  10922  103.91
 26.6896  10621.1  102.767
 26.8876  10532.2  102.187
 27.0856  10316.9  101.199
 27.2836  10276.4  100.884
 27.4816  10132.8  100.123
 27.6796  9991.78  99.7849
 27.8776  10221.3  100.78
 28.0756  9807  99.0021
 28.2736  9923.91  99.1759
 28.4716  9627.11  97.7336
 28.6696  9688.32  97.8876
 28.8676  9521.02  97.3921
 29.0656  9466.28  97.0841
 29.2636  9590.73  97.5114
 29.4616  9215.55  95.7684
 29.6596  9187.77  95.2019
 29.8576  9130.3  95.5741
 30.0556  9088.34  95.2276
 30.2536  9260.42  95.9268
 30.4516  9259  95.5511
 30.6496  9378.75  95.9136
 30.8476  9269.92  95.7934
 31.0456  9334.57  96.0929
 31.2436  9306.5  95.2211
 31.4416  9031.5  93.9869
 31.6396  9077.59  94.2652
 31.8376  9147.69  94.1673
 32.0356  9037.13  94.1541
 32.2336  9159.93  94.2034
 32.4316  8765.81  92.5417
 32.6296  8704.88  92.0557
 32.8276  8829.73  92.5106
 33.0256  8605.29  91.376
 33.2236  8780.98  92.4581
 33.4216  8695.59  91.6932
 33.6196  8646.21  91.7332
 33.8176  8713.92  92.2547
 34.0156  8501.52  90.7559
 34.2136  8571.12  91.1468
 34.4116  8418.66  90.4961
 34.6096  8334.09  89.9235
 34.8076  8380.94  90.5844
 35.0056  8415.04  90.4323
 35.2036  8611.79  91.7184
 35.4016  8265.1  89.7648
 35.5996  8270.78  89.8299
 35.7976  8218.46  89.8145
 35.9956  8332.68  90.0932
 36.1936  8250.32  89.4915
 36.3916  8221.87  89.5375
 36.5896  8058.44  89.6181
 36.7876  7948.65  88.4
 36.9856  7840.4  87.8297
 37.1836  7761.28  86.5127
 37.3816  7883.04  87.5431
 37.5796  7889.05  89.2799
 37.7776  7988.05  88.2166
 37.9756  8106.84  88.7545
 38.1736  8045.79  88.6109
 38.3716  7884.11  87.9808
 38.5696  7752.19  87.6138
 38.7676  7777.98  87.2833
 38.9656  7886.42  87.5249
 39.1636  7854.53  87.6126
 39.3616  7852.93  87.543
 39.5596  7528.2  86.5207
 39.7576  7671.54  86.7414
 39.9556  7645.85  86.2357
 40.1536  7840.97  87.5194
 40.3516  7894.26  87.8276
 40.5496  7798.32  87.5572
 40.7476  7877.53  87.9957
 40.9456  7908.02  87.9275
 41.1436  7949.27  87.8775
 41.3416  7654.23  86.5593
 41.5396  7794.54  87.1632
 41.7376  7701.21  86.8906
 41.9356  7664.37  86.5393
 42.1336  7836.35  87.6492
 42.3316  7648.72  86.7965
 42.5296  7738.25  86.8258
 42.7276  7708.91  86.8989
 42.9256  7704.23  86.7488
 43.1236  7635.77  86.468
 43.3216  7783.05  87.0392
 43.5196  7597.94  86.0595
 43.7176  7561.44  86.2542
 43.9156  7334.52  84.8644
 44.1136  7374.97  84.6564
 44.3116  7465.03  85.1795
 44.5096  7353.52  84.8514
 44.7076  7443.72  85.2968
 44.9056  7641.05  86.2889
 45.1036  7535.27  85.3105
 45.3016  7471.06  85.4371
 45.4996  7429.64  85.1498
 45.6976  7359.4  84.9219
 45.8956  7395.54  84.9527
 46.0936  7576.57  85.7453
 46.2916  7308.11  84.4381
 46.4896  7361.29  84.779
 46.6876  7375.11  85.5668
 46.8856  7307.56  84.4251
 47.0836  7298.16  84.6219
 47.2816  7200.07  83.9358
 47.4796  7383.41  85.1091
 47.6776  7093.19  84.3581
 47.8756  7361.69  85.1034
 48.0736  7348.99  85.4771
 48.2716  7134.18  84.0451
 48.4696  7325.44  84.7508
 48.6676  7328.21  85.3475
 48.8656  7347.08  85.1892
 49.0636  7276.17  84.7197
 49.2616  7151.05  84.0339
 49.4596  7270.42  84.2743
 49.6576  7250.81  84.4025
 49.8556  7163.27  83.9163
 50.0536  7273.48  85.0117
 50.2516  7140.41  84.3654
 50.4496  7234.98  84.5762
 50.6476  7180.01  83.9277
 50.8456  7218.22  84.2333
 51.0436  6979.59  83.2839
 51.2416  6826.89  82.0383
 51.4396  6812.01  82.3547
 51.6376  6866.89  82.5117
 51.8356  6918.24  82.4356
 52.0336  6838.12  82.467
 52.2316  6765.41  82.3733
 52.4296  6766.06  82.087
 52.6276  6773.64  82.2409
 52.8256  6912  82.6292
 53.0236  6957.45  83.5635
 53.2216  6760.49  82.3885
 53.4196  6633.4  81.5357
 53.6176  6796.54  83.0335
 53.8156  6756.89  82.4578
 54.0136  6515.99  81.1311
 54.2116  6765.79  82.3143
 54.4096  6469.86  80.5647
 54.6076  6416.58  80.5696
 54.8056  6435.11  80.4752
 55.0036  6560.43  81.5176
 55.2016  6358.92  79.8156
 55.3996  6343.16  79.812
 55.5976  6319.43  79.8512
 55.7956  6387.35  80.0767
 55.9936  6425.47  80.443
 56.1916  6295.97  79.677
 56.3896  6125.28  78.5634
 56.5876  6184.72  79.5105
 56.7856  6173.66  78.9283
 56.9836  6285.77  79.4143
 57.1816  6410.6  80.5689
 57.3796  6124.17  78.5585
 57.5776  6187.2  78.8587
 57.7756  6082.2  78.8637
 57.9736  6111.16  78.7103
 58.1716  6042.95  78.525
 58.3696  5752.72  76.384
 58.5676  5953.62  77.1684
 58.7656  5804.43  76.87
 58.9636  5809.59  76.9268
 59.1616  5793.95  76.9575
 59.3596  5842.54  76.5428
 59.5576  5915.78  77.0774
 59.7556  5833.06  76.9476
 59.9536  5955.74  77.6522
 60.1516  5870.08  77.9284
 60.1996  0.0000000E+00  0.0000000E+00