File: docs/examples/opeando_xrd/IS17_D/Data/IS17_D/17_Db_f00031.xye
# /beamlines/bl04/projects/cycle2025-II/20250340211-lsimonelli/DATA/IS17_D/17_Db_f00031.xye : mythproc.py merge -s 0.006 -l 0.5 -f /beamlines/bl04/inhouse/ff/FlatField/ff_20Nov2024rod8mm60s_17keV.raw -b True -c true -o xye /beamlines/bl04/projects/cycle2025-II/20250340211-lsimonelli/DATA/IS17_D/17_Db_00031.dat
# IsMon = [6779106, 6783459, 6783048]  IsPos = [-1.5000, -2.4885, -3.4986]
# Wave = 0.4962  CalPath /beamlines/bl04/projects/cycle2025-II/20250340211-lsimonelli/DATA/Align/Si_Pos1_25keV_f00001.cal
# Date = 2025-09-24_02:21:11 Dt = 4.8000  Bin = 0.0060  <imon> = 6781871 +/- 1962 (Min/Max) 6779106 / 6783459
# icurr 252.3205  mocoIn 1.7208E-05  mocoOut 0.8072  i15 7.10013e+06  imon 6.78187e+06  i7 6.6667  iEMpd_timer 4.8000  iEMpd_1 3.5984E-08  iEMpd_2 7.7921E-08  iEMpd_3 1.6839E-08  iEMpd_4 4.8568E-08  iEMhp_timer 4.8000  iEMhp_1 4.9294E-06  iEMhp_2 -2.5609E-08  iEMhp_3 -2.3698E-08  iEMhp_4 -2.2820E-08
#      9776
 1.7416  70467.3  265.587
 1.9396  48377.8  220.346
 2.1376  35339.4  188.319
 2.3356  31699.6  177.983
 2.5336  29344.4  171.846
 2.7316  26805  164.334
 2.9296  25641.9  160.878
 3.1276  25305  159.37
 3.3256  24387  156.103
 3.5236  26255.7  161.929
 3.7216  23854.7  155.446
 3.9196  23365.1  153.041
 4.1176  23365.9  152.846
 4.3156  24274.4  155.952
 4.5136  26688.8  162.496
 4.7116  27597  166.378
 4.9096  27066.2  164.207
 5.1076  26835.5  164.094
 5.3056  27043  164.323
 5.5036  26457.8  162.576
 5.7016  26993.8  164.163
 5.8996  27390.2  164.6
 6.0976  28408.9  169.048
 6.2956  28366  168.258
 6.4936  29174.3  169.847
 6.6916  29466.6  171.676
 6.8896  30201.5  173.648
 7.0876  31704.8  178.592
 7.2856  30816.7  175.202
 7.4836  31197.2  175.638
 7.6816  31896  178.093
 7.8796  32516.6  179.828
 8.0776  33843.3  184.423
 8.2756  35597.5  187.784
 8.4736  36481.9  189.911
 8.6716  35216.7  187.194
 8.8696  36318.6  190.63
 9.0676  35329.4  187.346
 9.2656  34262.3  185.18
 9.4636  33108.9  180.525
 9.6616  32626.2  179.921
 9.8596  32203.9  178.216
 10.0576  29779.6  172.022
 10.2556  29081.6  170.438
 10.4536  28328.6  167.822
 10.6516  27913.9  166.798
 10.8496  26641.9  162.369
 11.0476  25453.3  158.666
 11.2456  25062.3  158.017
 11.4436  25333.6  158.062
 11.6416  25529.1  159.002
 11.8396  24015.3  154.427
 12.0376  23341.3  151.872
 12.2356  23175.1  151.782
 12.4336  23146.4  151.209
 12.6316  23017.7  151.06
 12.8296  23072.7  150.857
 13.0276  23536  152.564
 13.2256  23665  153.338
 13.4236  23539  152.708
 13.6216  23671.9  153.149
 13.8196  25967  159.807
 14.0176  22969.6  150.917
 14.2156  22684.2  149.032
 14.4136  21365.1  145.986
 14.6116  21156.2  144.476
 14.8096  20707.9  142.925
 15.0076  19681.8  143.175
 15.2056  18614.3  135.125
 15.4036  18039.8  133.833
 15.6016  17468.7  130.811
 15.7996  17054.7  129.516
 15.9976  16794.9  131.376
 16.1956  16410.2  127.801
 16.3936  16159.8  126.014
 16.5916  15897.8  125.632
 16.7896  15995  126.063
 16.9876  15687.3  126.267
 17.1856  15513  123.974
 17.3836  15088.4  122.183
 17.5816  14733.6  121.211
 17.7796  14458.6  120.004
 17.9776  14249  119.895
 18.1756  14232.6  118.591
 18.3736  14206.1  118.945
 18.5716  13845.3  117.191
 18.7696  13902.2  116.998
 18.9676  13704.9  115.977
 19.1656  13492.7  115.65
 19.3636  13378.4  115.344
 19.5616  13246.2  114.941
 19.7596  13587.8  115.828
 19.9576  13822.7  116.852
 20.1556  13925.8  117.806
 20.3536  13350.3  114.752
 20.5516  12932.1  113.381
 20.7496  12734.1  112.359
 20.9476  12724.2  112.169
 21.1456  12619.3  112.014
 21.3436  12390.4  110.949
 21.5416  12348.2  110.777
 21.7396  12344.7  110.602
 21.9376  12207.6  109.767
 22.1356  12225.5  109.994
 22.3336  11781.2  108.197
 22.5316  11990.7  109.264
 22.7296  12085  109.067
 22.9276  11814.8  108.495
 23.1256  12066.7  109.13
 23.3236  12388.3  111.161
 23.5216  12287.4  110.338
 23.7196  12258.2  110.389
 23.9176  12055.6  109.012
 24.1156  11920.7  108.837
 24.3136  11642.2  108.368
 24.5116  11645.5  107.902
 24.7096  11449.2  106.803
 24.9076  11172.1  105.546
 25.1056  10849.7  104.189
 25.3036  10722.7  103.361
 25.5016  10749.4  103.53
 25.6996  10642.4  102.602
 25.8976  10683.5  103.231
 26.0956  10446.7  102.087
 26.2936  10514.1  102.076
 26.4916  10791.6  103.277
 26.6896  10458.8  101.973
 26.8876  10446.1  101.769
 27.0856  10217  100.668
 27.2836  10088.4  100.123
 27.4816  9930.06  99.1128
 27.6796  9825.78  98.9465
 27.8776  10125.1  100.306
 28.0756  9754.3  98.7328
 28.2736  9823.48  98.6694
 28.4716  9508.94  97.1326
 28.6696  9698.12  97.9457
 28.8676  9510.54  97.3362
 29.0656  9396.46  96.7244
 29.2636  9476.82  96.86
 29.4616  9015.31  94.716
 29.6596  9114.51  94.8147
 29.8576  8962.6  94.6787
 30.0556  8927.97  94.3784
 30.2536  9011.49  94.6221
 30.4516  9214.25  95.3338
 30.6496  9254.65  95.2847
 30.8476  9193.66  95.3993
 31.0456  9171.42  95.259
 31.2436  9271.76  95.0502
 31.4416  8915.42  93.3813
 31.6396  8973.75  93.7283
 31.8376  9063.72  93.7394
 32.0356  8984.39  93.8756
 32.2336  8939.05  93.0606
 32.4316  8647.52  91.9155
 32.6296  8698.78  91.9511
 32.8276  8639.27  91.5061
 33.0256  8640.22  91.567
 33.2236  8548.42  91.2297
 33.4216  8627.97  91.3364
 33.6196  8577.49  91.3547
 33.8176  8501.3  91.1186
 34.0156  8297.36  89.6581
 34.2136  8495.4  90.7526
 34.4116  8258.84  89.6333
 34.6096  8391.78  90.2264
 34.8076  8195.99  89.5774
 35.0056  8112.97  88.7955
 35.2036  8464.53  90.937
 35.4016  8150.38  89.1366
 35.5996  8107.93  88.9497
 35.7976  8120.36  89.2777
 35.9956  8336.32  90.1116
 36.1936  8235.47  89.4068
 36.3916  8025.52  88.4658
 36.5896  8037.75  89.9673
 36.7876  7745.92  87.2633
 36.9856  7582.6  86.3538
 37.1836  7750.25  86.4448
 37.3816  7867.79  87.4558
 37.5796  7873.98  89.193
 37.7776  7925.77  87.8697
 37.9756  8069.14  88.5573
 38.1736  7927.42  87.9607
 38.3716  7738.2  87.1752
 38.5696  7729.36  87.4772
 38.7676  7645.95  86.541
 38.9656  7790.62  86.9864
 39.1636  7707.74  86.7658
 39.3616  7717.05  86.7741
 39.5596  7627.89  87.0973
 39.7576  7573.38  86.184
 39.9556  7634.82  86.1791
 40.1536  7707.96  86.7826
 40.3516  7609.6  86.3155
 40.5496  7675.93  86.6606
 40.7476  7786.82  87.492
 40.9456  7783.1  87.2288
 41.1436  7822.61  87.1797
 41.3416  7580.27  86.1369
 41.5396  7637.55  86.2769
 41.7376  7661.44  86.6657
 41.9356  7605.64  86.214
 42.1336  7776.94  87.3273
 42.3316  7540.78  86.1813
 42.5296  7696  86.5905
 42.7276  7589.67  86.2285
 42.9256  7733.71  86.9143
 43.1236  7567.74  86.0759
 43.3216  7567.23  85.9169
 43.5196  7505.88  85.5394
 43.7176  7537.84  86.1147
 43.9156  7412.77  85.3108
 44.1136  7226.94  83.7979
 44.3116  7243.6  83.9052
 44.5096  7244.65  84.2134
 44.7076  7356.19  84.7926
 44.9056  7474.43  85.3528
 45.1036  7322.48  84.1106
 45.3016  7225.85  84.0454
 45.4996  7443.67  85.2398
 45.6976  7248.26  84.2846
 45.8956  7292.75  84.3588
 46.0936  7394.44  84.7019
 46.2916  7292.24  84.3258
 46.4896  7469.77  85.3896
 46.6876  7077.46  83.8117
 46.8856  7206.79  83.9582
 47.0836  7179.24  83.9321
 47.2816  7144.87  83.6032
 47.4796  7146.1  83.7239
 47.6776  7213.77  85.0631
 47.8756  7219.04  84.276
 48.0736  7272.58  85.0193
 48.2716  7075.67  83.6932
 48.4696  7189.29  83.9443
 48.6676  7119.45  84.1467
 48.8656  7209.89  84.3919
 49.0636  7223.37  84.416
 49.2616  7056.8  83.4767
 49.4596  7052.99  83.0112
 49.6576  7107.27  83.5623
 49.8556  7102.29  83.5539
 50.0536  7026.99  83.5554
 50.2516  7103.26  84.121
 50.4496  7039.23  83.4191
 50.6476  7187.93  83.9768
 50.8456  7010.7  83.0147
 51.0436  6870.55  82.6234
 51.2416  6875.78  82.3307
 51.4396  6687.51  81.5891
 51.6376  6839.14  82.3306
 51.8356  6766.45  81.516
 52.0336  6932.11  83.04
 52.2316  6669.45  81.8064
 52.4296  6702.3  81.7067
 52.6276  6697.7  81.7866
 52.8256  6822.08  82.1033
 53.0236  6889.7  83.1549
 53.2216  6732.94  82.2082
 53.4196  6754.3  82.2848
 53.6176  6680.04  82.3265
 53.8156  6731.86  82.3042
 54.0136  6396.45  80.3913
 54.2116  6602.39  81.3075
 54.4096  6412.25  80.203
 54.6076  6420.22  80.5764
 54.8056  6355.96  79.9682
 55.0036  6450.97  80.8432
 55.2016  6312.26  79.535
 55.3996  6149.24  78.5724
 55.5976  6323.52  79.8824
 55.7956  6202.36  78.9084
 55.9936  6353.28  79.9992
 56.1916  6129.25  78.6069
 56.3896  6110.9  78.4584
 56.5876  6124.29  79.1047
 56.7856  6166.64  78.879
 56.9836  6192.89  78.8291
 57.1816  6239.76  79.489
 57.3796  6003.95  77.7449
 57.5776  6137.11  78.531
 57.7756  5955  78.0162
 57.9736  5990.9  77.9135
 58.1716  5947.42  77.8925
 58.3696  5750.67  76.3632
 58.5676  5717.16  75.624
 58.7656  5748.42  76.4927
 58.9636  5721.56  76.3451
 59.1616  5794.9  76.9612
 59.3596  5744.43  75.9044
 59.5576  5797.35  76.3084
 59.7556  5701.12  76.0788
 59.9536  5812.62  76.72
 60.1516  5738.71  77.058
 60.1996  0.0000000E+00  0.0000000E+00