File: docs/examples/opeando_xrd/IS17_D/Data/IS17_D/17_Da_f00059.xye
# /beamlines/bl04/projects/cycle2025-II/20250340211-lsimonelli/DATA/IS17_D/17_Da_f00059.xye : mythproc.py merge -s 0.006 -l 0.5 -f /beamlines/bl04/inhouse/ff/FlatField/ff_20Nov2024rod8mm60s_17keV.raw -b True -c true -o xye /beamlines/bl04/projects/cycle2025-II/20250340211-lsimonelli/DATA/IS17_D/17_Da_00059.dat
# IsMon = [6789390, 6795215, 6792044]  IsPos = [-1.4999, -2.4884, -3.4988]
# Wave = 0.4962  CalPath /beamlines/bl04/projects/cycle2025-II/20250340211-lsimonelli/DATA/Align/Si_Pos1_25keV_f00001.cal
# Date = 2025-09-24_09:58:17 Dt = 4.8000  Bin = 0.0060  <imon> = 6792216 +/- 2381 (Min/Max) 6789390 / 6795215
# icurr 252.9952  mocoIn 1.7258E-05  mocoOut 0.8093  i15 7.11176e+06  imon 6.79222e+06  i7 6.6667  iEMpd_timer 4.8000  iEMpd_1 3.5784E-08  iEMpd_2 7.8166E-08  iEMpd_3 1.5922E-08  iEMpd_4 4.8056E-08  iEMhp_timer 4.8000  iEMhp_1 4.9425E-06  iEMhp_2 -2.6103E-08  iEMhp_3 -2.4108E-08  iEMhp_4 -2.1671E-08
#      9776
 1.7416  71039.8  266.665
 1.9396  46599.6  216.251
 2.1376  33015.8  182.023
 2.3356  29625.8  172.063
 2.5336  27428.3  166.141
 2.7316  25742.9  161.027
 2.9296  24774.3  158.142
 3.1276  24270.3  156.078
 3.3256  23839.1  154.335
 3.5236  25959.4  160.852
 3.7216  23627.5  154.716
 3.9196  23158  152.398
 4.1176  22970.5  151.557
 4.3156  24314.4  156.088
 4.5136  26684.4  162.482
 4.7116  27727.4  166.783
 4.9096  27185.5  164.58
 5.1076  26750.5  163.841
 5.3056  27147.2  164.772
 5.5036  27141  164.64
 5.7016  27296.5  165.086
 5.8996  28003.6  166.422
 6.0976  28649.9  169.783
 6.2956  29310.5  171.046
 6.4936  29940.6  172.069
 6.6916  30208.9  173.842
 6.8896  31074.4  176.173
 7.0876  32244.6  180.195
 7.2856  32077.3  178.772
 7.4836  32473.6  179.205
 7.6816  33359.6  182.174
 7.8796  34882.8  186.256
 8.0776  36434.7  191.354
 8.2756  38462.4  195.192
 8.4736  38775  195.788
 8.6716  38445.2  195.586
 8.8696  38112.7  195.265
 9.0676  37253.8  192.411
 9.2656  36246.9  190.482
 9.4636  36221.9  188.799
 9.6616  35423.4  187.497
 9.8596  33929.9  182.94
 10.0576  31903.6  178.054
 10.2556  31215.1  176.571
 10.4536  29935.8  172.519
 10.6516  29161.7  170.472
 10.8496  28386.9  167.61
 11.0476  27593.1  165.267
 11.2456  26868.4  163.607
 11.4436  27229.7  163.873
 11.6416  26685.6  162.585
 11.8396  25208.2  158.237
 12.0376  25264.9  158.041
 12.2356  24541.6  156.157
 12.4336  24410.8  155.29
 12.6316  24409.2  155.565
 12.8296  24597.1  155.792
 13.0276  25284.1  158.127
 13.2256  25207.5  158.269
 13.4236  25126.8  157.778
 13.6216  24966  157.295
 13.8196  25085.2  157.428
 14.0176  24411.3  155.583
 14.2156  23972.7  153.214
 14.4136  22874.3  151.053
 14.6116  22538.7  149.141
 14.8096  21869  146.895
 15.0076  20565.9  146.272
 15.2056  20370.6  141.357
 15.4036  19242.5  138.226
 15.6016  19176.6  137.05
 15.7996  18522.1  134.979
 15.9976  17824  135.407
 16.1956  17260.5  131.105
 16.3936  17033.9  129.408
 16.5916  16510.7  128.04
 16.7896  16669.3  128.712
 16.9876  16618.7  129.983
 17.1856  16277.3  126.982
 17.3836  15812.1  125.065
 17.5816  15430.8  124.04
 17.7796  15432.8  123.974
 17.9776  15036.1  123.175
 18.1756  15172.7  122.417
 18.3736  14947.7  122.022
 18.5716  14630.6  120.478
 18.7696  14862.6  120.983
 18.9676  14489.6  119.272
 19.1656  14348.7  119.258
 19.3636  14330.5  119.364
 19.5616  14183.1  118.933
 19.7596  14386.2  119.175
 19.9576  14986.7  121.7
 20.1556  14492.7  120.202
 20.3536  14019.7  117.595
 20.5516  13776.5  117.026
 20.7496  13539.9  115.957
 20.9476  13444.8  115.3
 21.1456  13387.3  115.373
 21.3436  13308.6  114.991
 21.5416  13103.9  114.102
 21.7396  13013.9  113.559
 21.9376  13040.3  113.442
 22.1356  12928.9  113.064
 22.3336  13040.3  113.847
 22.5316  12963.5  113.6
 22.7296  12917.7  112.751
 22.9276  13037.2  113.967
 23.1256  13111.3  113.763
 23.3236  13020.4  113.927
 23.5216  12863.6  112.915
 23.7196  12770.2  112.454
 23.9176  12596.2  111.436
 24.1156  12425.8  111.154
 24.3136  12189.2  110.875
 24.5116  12107.4  110.028
 24.7096  11834.6  108.597
 24.9076  11587.1  107.487
 25.1056  11389.2  107.027
 25.3036  11358.2  106.376
 25.5016  11281  106.056
 25.6996  11282.4  105.641
 25.8976  11207.8  105.736
 26.0956  11154.3  105.5
 26.2936  11132.2  105.033
 26.4916  11364.9  106.012
 26.6896  10917.9  104.202
 26.8876  10833.1  103.651
 27.0856  10823.5  103.656
 27.2836  10647.8  102.698
 27.4816  10552.7  102.17
 27.6796  10444.7  102.029
 27.8776  10309.6  101.232
 28.0756  10362.2  101.769
 28.2736  10206  100.582
 28.4716  10144.5  100.33
 28.6696  10147.5  100.189
 28.8676  9983.21  99.7193
 29.0656  9866.39  99.1188
 29.2636  9922.49  99.1905
 29.4616  9792.11  98.7095
 29.6596  9856.84  98.5999
 29.8576  9710.38  98.5556
 30.0556  9754.52  98.6615
 30.2536  9701.2  98.1757
 30.4516  9693.62  97.8093
 30.6496  9772.62  97.9314
 30.8476  9528.49  97.1429
 31.0456  9489.8  96.9113
 31.2436  9581.47  96.6369
 31.4416  9380  95.7796
 31.6396  9405.92  95.9592
 31.8376  9364.37  95.2904
 32.0356  9285.7  95.4476
 32.2336  9223.85  94.5306
 32.4316  9222.83  94.9224
 32.6296  9188.75  94.5844
 32.8276  9152.73  94.1755
 33.0256  9068.99  93.8214
 33.2236  9055.15  93.9003
 33.4216  9053.78  93.5794
 33.6196  9086.57  94.0404
 33.8176  9014.18  93.8312
 34.0156  8948.22  93.1056
 34.2136  8822.88  92.4895
 34.4116  8796.29  92.4974
 34.6096  8802.43  92.4137
 34.8076  8741.22  92.4995
 35.0056  8782.38  92.4067
 35.2036  8708.78  92.2331
 35.4016  8686.8  92.0342
 35.5996  8685.94  92.0641
 35.7976  8542.06  91.5734
 35.9956  8637.9  91.7306
 36.1936  8511.92  90.9288
 36.3916  8507.18  91.0778
 36.5896  8326.14  91.0792
 36.7876  8491.23  91.3648
 36.9856  8386.26  90.8294
 37.1836  8458.23  90.3056
 37.3816  8442.06  90.5938
 37.5796  8318.82  91.6778
 37.7776  8154.82  89.1438
 37.9756  8191.63  89.2311
 38.1736  8302.37  90.03
 38.3716  8272.39  90.1445
 38.5696  8104.55  89.5974
 38.7676  8035.38  88.7134
 38.9656  8045.37  88.4014
 39.1636  8072.69  88.8201
 39.3616  8106.64  88.9239
 39.5596  7892.66  88.5963
 39.7576  7965.5  88.3788
 39.9556  8038.86  88.4197
 40.1536  8147.62  89.2306
 40.3516  8137.49  89.18
 40.5496  8180.68  89.673
 40.7476  8187.36  89.7219
 40.9456  8215.04  89.6228
 41.1436  8148.37  88.9776
 41.3416  8097.42  89.0318
 41.5396  8070.23  88.6916
 41.7376  8059.49  88.9016
 41.9356  7911.61  87.9385
 42.1336  8075.98  89.0016
 42.3316  8049.36  89.0489
 42.5296  7997.57  88.2758
 42.7276  8037.7  88.7412
 42.9256  8002.56  88.4156
 43.1236  7745.72  87.0919
 43.3216  7929.7  87.8734
 43.5196  7879.86  87.6532
 43.7176  7856.1  87.9211
 43.9156  7746.69  87.2072
 44.1136  7736.22  86.6999
 44.3116  7766.67  86.886
 44.5096  7668.79  86.6423
 44.7076  7699.01  86.7456
 44.9056  7582.02  85.9634
 45.1036  7547.86  85.4002
 45.3016  7362.17  84.839
 45.4996  7377.74  84.8686
 45.6976  7431.65  85.3512
 45.8956  7481.9  85.4481
 46.0936  7558.59  85.8933
 46.2916  7400.56  84.9666
 46.4896  7472.19  85.4094
 46.6876  7364.15  85.5059
 46.8856  7315.93  84.482
 47.0836  7291.94  84.5957
 47.2816  7303.97  84.5351
 47.4796  7221.66  84.1717
 47.6776  7227.08  85.1502
 47.8756  7161.24  83.9322
 48.0736  7211.46  84.6932
 48.2716  7027.86  83.4118
 48.4696  7151.13  83.7393
 48.6676  7152.22  84.3363
 48.8656  7182.79  84.2282
 49.0636  7159.64  84.0476
 49.2616  7005.32  83.1756
 49.4596  7098.92  83.2965
 49.6576  7047.2  83.2175
 49.8556  6947.86  82.646
 50.0536  7015.17  83.4952
 50.2516  6965.29  83.3354
 50.4496  6914.56  82.6741
 50.6476  6828.06  81.8483
 50.8456  6944.45  82.6308
 51.0436  6794.55  82.1651
 51.2416  6729.33  81.443
 51.4396  6567.44  80.8534
 51.6376  6616.7  80.9759
 51.8356  6708.37  81.1711
 52.0336  6569.08  80.8444
 52.2316  6521.63  80.8999
 52.4296  6672.68  81.5086
 52.6276  6572.26  81.0251
 52.8256  6636.61  80.9684
 53.0236  6454.92  80.4865
 53.2216  6409.11  80.237
 53.4196  6388.73  80.0302
 53.6176  6418.58  80.6961
 53.8156  6443.81  80.522
 54.0136  6412.69  80.508
 54.2116  6318.74  79.5805
 54.4096  6434  80.3484
 54.6076  6345.17  80.145
 54.8056  6290.35  79.5848
 55.0036  6335.31  80.2551
 55.2016  6342.26  79.8504
 55.3996  6355.06  79.8992
 55.5976  6331.32  79.9367
 55.7956  6309.07  79.6163
 55.9936  6283.12  79.5874
 56.1916  6328.65  79.8945
 56.3896  6255.87  79.4198
 56.5876  6235.99  79.8468
 56.7856  6182.76  78.9936
 56.9836  6239.96  79.1434
 57.1816  6272.44  79.7274
 57.3796  6271.66  79.5142
 57.5776  6287.15  79.5482
 57.7756  6187.69  79.5504
 57.9736  6217.15  79.4154
 58.1716  6282.36  80.0732
 58.3696  6183.49  79.1762
 58.5676  6298.15  79.3722
 58.7656  6229.91  79.6223
 58.9636  6244.44  79.7551
 59.1616  6269.69  80.0362
 59.3596  6247.45  79.1655
 59.5576  6362.92  79.952
 59.7556  6239.98  79.601
 59.9536  6112.96  78.6849
 60.1516  6294.52  80.7114
 60.1996  0.0000000E+00  0.0000000E+00