File: docs/examples/opeando_xrd/IS17_D/Data/IS17_D/17_Db_f00041.xye
# /beamlines/bl04/projects/cycle2025-II/20250340211-lsimonelli/DATA/IS17_D/17_Db_f00041.xye : mythproc.py merge -s 0.006 -l 0.5 -f /beamlines/bl04/inhouse/ff/FlatField/ff_20Nov2024rod8mm60s_17keV.raw -b True -c true -o xye /beamlines/bl04/projects/cycle2025-II/20250340211-lsimonelli/DATA/IS17_D/17_Db_00041.dat
# IsMon = [6767143, 6762270, 6770569]  IsPos = [-1.5000, -2.4885, -3.4988]
# Wave = 0.4962  CalPath /beamlines/bl04/projects/cycle2025-II/20250340211-lsimonelli/DATA/Align/Si_Pos1_25keV_f00001.cal
# Date = 2025-09-24_05:06:32 Dt = 4.8000  Bin = 0.0060  <imon> = 6766661 +/- 3405 (Min/Max) 6762270 / 6770569
# icurr 251.0496  mocoIn 1.7126E-05  mocoOut 0.8039  i15 7.08597e+06  imon 6.76666e+06  i7 4.3333  iEMpd_timer 4.8000  iEMpd_1 3.4599E-08  iEMpd_2 7.8673E-08  iEMpd_3 1.6664E-08  iEMpd_4 4.8210E-08  iEMhp_timer 4.8000  iEMhp_1 4.9050E-06  iEMhp_2 -2.6358E-08  iEMhp_3 -2.5278E-08  iEMhp_4 -2.1266E-08
#      9776
 1.7416  71435.9  267.342
 1.9396  49107.4  221.946
 2.1376  36482.8  191.296
 2.3356  32477.2  180.109
 2.5336  30802.5  176.022
 2.7316  27928.6  167.759
 2.9296  26733.6  164.286
 3.1276  25969.9  161.45
 3.3256  25329.5  159.122
 3.5236  26817.1  163.668
 3.7216  24222.6  156.636
 3.9196  23698.4  154.148
 4.1176  23679.8  153.869
 4.3156  24525.7  156.751
 4.5136  26944.2  163.288
 4.7116  27945.1  167.427
 4.9096  27194.1  164.587
 5.1076  26814.8  164.018
 5.3056  26866.9  163.89
 5.5036  26494.4  162.759
 5.7016  26914.1  163.919
 5.8996  27283.3  164.278
 6.0976  28149.4  168.273
 6.2956  28182.1  167.721
 6.4936  29107.6  169.645
 6.6916  29604.7  172.08
 6.8896  30339.4  174.036
 7.0876  31460.9  177.896
 7.2856  30957.4  175.605
 7.4836  31386  176.172
 7.6816  32157.7  178.844
 7.8796  32776.6  180.565
 8.0776  34122.1  185.205
 8.2756  35779.4  188.258
 8.4736  36645.2  190.359
 8.6716  35567.4  188.17
 8.8696  36420.1  190.856
 9.0676  35409  187.521
 9.2656  34574.6  185.984
 9.4636  33345.6  181.133
 9.6616  32633.2  179.909
 9.8596  32061  177.831
 10.0576  30177.3  173.196
 10.2556  29248  170.945
 10.4536  28134.8  167.26
 10.6516  27311.7  165.006
 10.8496  26244.2  161.141
 11.0476  25408.9  158.548
 11.2456  24631.6  156.672
 11.4436  24635.2  155.868
 11.6416  26305.4  161.401
 11.8396  24258.1  155.2
 12.0376  23616.1  152.773
 12.2356  23191.3  151.839
 12.4336  23095.9  151.05
 12.6316  23058.9  151.18
 12.8296  23153.7  151.122
 13.0276  23309.9  151.836
 13.2256  23742.8  153.596
 13.4236  23719.1  153.294
 13.6216  24147  154.669
 13.8196  26125.4  160.348
 14.0176  23020.6  151.09
 14.2156  22677.7  149.008
 14.4136  21585.2  146.737
 14.6116  21292.3  144.949
 14.8096  20682.1  142.827
 15.0076  19736  143.37
 15.2056  18701.9  135.458
 15.4036  17829.7  133.069
 15.6016  17672.7  131.587
 15.7996  17158.4  129.911
 15.9976  16922.1  131.864
 16.1956  16376.9  127.641
 16.3936  16176.9  126.05
 16.5916  15814.7  125.274
 16.7896  15835.9  125.407
 16.9876  15743.6  126.506
 17.1856  15608.8  124.377
 17.3836  15307  123.078
 17.5816  14836.6  121.645
 17.7796  14623.3  120.696
 17.9776  14047.2  119.033
 18.1756  14043  117.797
 18.3736  13644.5  116.586
 18.5716  13707.1  116.596
 18.7696  13693.1  116.115
 18.9676  13582.9  115.445
 19.1656  13224.7  114.49
 19.3636  13220.4  114.672
 19.5616  13151.7  114.528
 19.7596  13413.8  115.078
 19.9576  13521.9  115.574
 20.1556  14109.9  118.6
 20.3536  13794.2  116.65
 20.5516  13200.6  114.552
 20.7496  12876  112.976
 20.9476  12775.5  112.388
 21.1456  12543.7  111.682
 21.3436  12472.1  111.314
 21.5416  12365.4  110.853
 21.7396  12183.2  109.879
 21.9376  12164.6  109.565
 22.1356  12349.6  110.677
 22.3336  11852.3  108.537
 22.5316  12158.1  110.038
 22.7296  12005.7  108.72
 22.9276  11903.9  108.916
 23.1256  11906.3  108.409
 23.3236  12381.8  111.107
 23.5216  12209.9  109.975
 23.7196  12192  110.065
 23.9176  12338.6  110.257
 24.1156  11789.3  108.222
 24.3136  11666.4  108.486
 24.5116  11685.7  108.093
 24.7096  11363  106.406
 24.9076  11231.7  105.827
 25.1056  10941.9  104.65
 25.3036  10771.6  103.604
 25.5016  10658.8  103.09
 25.6996  10724.4  103.001
 25.8976  10664.8  103.122
 26.0956  10443.2  102.067
 26.2936  10636.6  102.687
 26.4916  10787  103.256
 26.6896  10446.7  101.917
 26.8876  10392.6  101.506
 27.0856  10204.7  100.608
 27.2836  10097.4  100.011
 27.4816  9862.94  98.7854
 27.6796  9908.66  99.3673
 27.8776  10093.4  100.151
 28.0756  9760.5  98.7739
 28.2736  9783.21  98.4724
 28.4716  9492.35  97.0461
 28.6696  9548.2  97.1846
 28.8676  9500.51  97.2874
 29.0656  9417.79  96.8373
 29.2636  9413.75  96.5335
 29.4616  9068.75  95.0072
 29.6596  9205.37  95.2976
 29.8576  8789.68  93.7775
 30.0556  9002.49  94.7779
 30.2536  9155.64  95.3869
 30.4516  9163.85  95.0539
 30.6496  9359.4  95.8061
 30.8476  9125.87  95.04
 31.0456  9248.05  95.6354
 31.2436  9259.22  94.9694
 31.4416  8957.7  93.6133
 31.6396  8999.96  93.8752
 31.8376  9004.06  93.4326
 32.0356  8886.76  93.3887
 32.2336  8962.75  93.1853
 32.4316  8610.34  91.7285
 32.6296  8768.73  92.3306
 32.8276  8719.08  91.9242
 33.0256  8671.11  91.7376
 33.2236  8646.37  91.7435
 33.4216  8654.27  91.48
 33.6196  8585.08  91.4073
 33.8176  8615.42  91.7351
 34.0156  8566  91.0987
 34.2136  8603.42  91.3166
 34.4116  8322.23  89.9785
 34.6096  8306.14  89.7709
 34.8076  8298.04  90.1379
 35.0056  8271.63  89.6618
 35.2036  8426.3  90.7224
 35.4016  8225.07  89.5499
 35.5996  8298.12  89.9852
 35.7976  8115.98  89.2445
 35.9956  8226.82  89.5156
 36.1936  8319.41  89.8749
 36.3916  8050.13  88.5982
 36.5896  8060.47  90.0881
 36.7876  7842.44  87.8184
 36.9856  7627.25  86.6314
 37.1836  7808.96  86.773
 37.3816  7714.59  86.6016
 37.5796  7901.39  89.351
 37.7776  7857.61  87.4798
 37.9756  8046.03  88.406
 38.1736  8026.84  88.4913
 38.3716  7840.82  87.7259
 38.5696  7741.58  87.5539
 38.7676  7690.39  86.8008
 38.9656  7699.34  86.4859
 39.1636  7754.22  87.0325
 39.3616  7726.71  86.8467
 39.5596  7622.24  87.0594
 39.7576  7584.76  86.2473
 39.9556  7647.7  86.2529
 40.1536  7775.98  87.1552
 40.3516  7740.38  86.9874
 40.5496  7679.4  86.6844
 40.7476  7798.27  87.5441
 40.9456  7808.95  87.3684
 41.1436  7836.06  87.2465
 41.3416  7643.24  86.5009
 41.5396  7673.52  86.4789
 41.7376  7675.45  86.7436
 41.9356  7630.31  86.3485
 42.1336  7878.85  87.8869
 42.3316  7631.3  86.6965
 42.5296  7666.96  86.4282
 42.7276  7686.45  86.7735
 42.9256  7601.97  86.1693
 43.1236  7547.4  85.9608
 43.3216  7611.67  86.1812
 43.5196  7580.34  85.9691
 43.7176  7537.48  86.0994
 43.9156  7482.35  85.7202
 44.1136  7229.19  83.821
 44.3116  7370.01  84.6351
 44.5096  7376.22  84.9874
 44.7076  7327.69  84.6375
 44.9056  7551.63  85.7734
 45.1036  7406.33  84.5699
 45.3016  7407.2  85.0697
 45.4996  7331.25  84.5771
 45.6976  7310  84.6236
 45.8956  7345.43  84.674
 46.0936  7512.68  85.3901
 46.2916  7305.11  84.4207
 46.4896  7341.91  84.6557
 46.6876  7171.38  84.3835
 46.8856  7222.02  83.9322
 47.0836  7254.66  84.3749
 47.2816  7138.93  83.587
 47.4796  7228.05  84.2087
 47.6776  7204.11  84.9974
 47.8756  7204.63  84.1871
 48.0736  7180.92  84.4927
 48.2716  7169.57  84.2513
 48.4696  7199.84  84.0098
 48.6676  7198.09  84.5995
 48.8656  7152.3  84.053
 49.0636  7223.55  84.4121
 49.2616  7089.62  83.6718
 49.4596  7188.74  83.814
 49.6576  7175.99  83.9595
 49.8556  7184.21  84.0401
 50.0536  7127.12  84.1513
 50.2516  7109.73  84.1593
 50.4496  7124.85  83.9312
 50.6476  7149.31  83.7466
 50.8456  7110.36  83.6065
 51.0436  6995.31  83.3816
 51.2416  6825.46  82.0221
 51.4396  6707.92  81.7272
 51.6376  6829.5  82.2913
 51.8356  6784.45  81.6415
 52.0336  6848.03  82.5145
 52.2316  6859.79  82.9477
 52.4296  6720.02  81.7983
 52.6276  6701.98  81.7851
 52.8256  6958.62  82.9024
 53.0236  6846.01  82.9013
 53.2216  6777.24  82.4959
 53.4196  6852.79  82.8847
 53.6176  6743.18  82.7218
 53.8156  6704.59  82.148
 54.0136  6522.02  81.178
 54.2116  6637.83  81.5393
 54.4096  6441.33  80.398
 54.6076  6429.09  80.6604
 54.8056  6371.96  80.0667
 55.0036  6605.38  81.7928
 55.2016  6395.03  80.0574
 55.3996  6271.69  79.3469
 55.5976  6256.23  79.4352
 55.7956  6289.82  79.4736
 55.9936  6363.69  80.0673
 56.1916  6169.71  78.8751
 56.3896  6160.69  78.7887
 56.5876  6197.24  79.5598
 56.7856  6074.49  78.2814
 56.9836  6217.51  78.9727
 57.1816  6288.28  79.7893
 57.3796  6174.47  78.8812
 57.5776  6130.61  78.4953
 57.7756  6071.13  78.7698
 57.9736  6000.96  77.9916
 58.1716  5958.46  77.9673
 58.3696  5771.53  76.5142
 58.5676  5828.92  76.3732
 58.7656  5771.69  76.6564
 58.9636  5701.31  76.2158
 59.1616  5754.96  76.7041
 59.3596  5810.42  76.3234
 59.5576  5806.95  76.3562
 59.7556  5736.22  76.2973
 59.9536  5754.03  76.3169
 60.1516  5839.73  77.7176
 60.1996  0.0000000E+00  0.0000000E+00