File: docs/examples/opeando_xrd/IS17_D/Data/IS17_D/17_Db_f00131.xye
# /beamlines/bl04/projects/cycle2025-II/20250340211-lsimonelli/DATA/IS17_D/17_Db_f00131.xye : mythproc.py merge -s 0.006 -l 0.5 -f /beamlines/bl04/inhouse/ff/FlatField/ff_20Nov2024rod8mm60s_17keV.raw -b True -c true -o xye /beamlines/bl04/projects/cycle2025-II/20250340211-lsimonelli/DATA/IS17_D/17_Db_00131.dat
# IsMon = [6745691, 6744431, 6742985]  IsPos = [-1.5000, -2.4884, -3.4988]
# Wave = 0.4962  CalPath /beamlines/bl04/projects/cycle2025-II/20250340211-lsimonelli/DATA/Align/Si_Pos1_25keV_f00001.cal
# Date = 2025-09-25_06:12:48 Dt = 4.8000  Bin = 0.0060  <imon> = 6744369 +/- 1106 (Min/Max) 6742985 / 6745691
# icurr 249.5828  mocoIn 1.7016E-05  mocoOut 0.7983  i15 7.06621e+06  imon 6.74437e+06  i7 5.6667  iEMpd_timer 4.8000  iEMpd_1 3.5408E-08  iEMpd_2 7.8186E-08  iEMpd_3 1.7643E-08  iEMpd_4 4.8718E-08  iEMhp_timer 4.8000  iEMhp_1 4.8749E-06  iEMhp_2 -2.5980E-08  iEMhp_3 -2.4220E-08  iEMhp_4 -2.2449E-08
#      9776
 1.7416  69772.3  264.194
 1.9396  48355.9  220.228
 2.1376  35157.2  187.776
 2.3356  31633.4  177.743
 2.5336  29468.9  172.158
 2.7316  26853.5  164.466
 2.9296  25791.4  161.336
 3.1276  25145.7  158.837
 3.3256  24375.9  156.05
 3.5236  26108.8  161.308
 3.7216  23878.5  155.523
 3.9196  23520.1  153.568
 4.1176  23325.3  152.705
 4.3156  24366.1  156.256
 4.5136  26702.7  162.545
 4.7116  27909.7  167.322
 4.9096  27123.6  164.383
 5.1076  26836.3  164.085
 5.3056  26838.6  163.82
 5.5036  26722.9  163.377
 5.7016  27003.9  164.194
 5.8996  27729.8  165.613
 6.0976  28628.9  169.695
 6.2956  28550.5  168.821
 6.4936  29360.1  170.38
 6.6916  29616.3  172.12
 6.8896  30394.2  174.199
 7.0876  31666  178.471
 7.2856  31316.3  176.622
 7.4836  31751.5  177.198
 7.6816  32635.1  180.16
 7.8796  33621.5  182.887
 8.0776  35151.7  187.984
 8.2756  37013  191.514
 8.4736  37357.3  192.206
 8.6716  36678.7  191.074
 8.8696  37529.1  193.771
 9.0676  36786.5  191.158
 9.2656  35860.6  189.446
 9.4636  34796.6  185.076
 9.6616  34027.7  183.752
 9.8596  33495.2  181.731
 10.0576  31327.3  176.424
 10.2556  30725.8  175.177
 10.4536  30349  173.685
 10.6516  29903  172.622
 10.8496  27826.5  165.943
 11.0476  27127  163.859
 11.2456  26969.2  163.926
 11.4436  27509.2  164.708
 11.6416  26096.8  160.764
 11.8396  24911.7  157.276
 12.0376  24417.1  155.355
 12.2356  24318  155.452
 12.4336  24223.8  154.696
 12.6316  24007.4  154.265
 12.8296  24037.9  153.987
 13.0276  24392.6  155.323
 13.2256  24182  155.015
 13.4236  24333.4  155.271
 13.6216  24657.1  156.284
 13.8196  26915.2  162.732
 14.0176  23887.3  153.916
 14.2156  23318.1  151.095
 14.4136  22136  148.596
 14.6116  21823  146.743
 14.8096  21074.9  144.194
 15.0076  20143  144.833
 15.2056  19269.9  137.501
 15.4036  18461.9  135.412
 15.6016  17918.4  132.503
 15.7996  17758.5  132.187
 15.9976  17288.4  133.329
 16.1956  17038.2  130.228
 16.3936  16717.4  128.175
 16.5916  16329  127.314
 16.7896  16532.2  128.162
 16.9876  16350.4  128.906
 17.1856  16005.1  125.925
 17.3836  15447.4  123.616
 17.5816  15346.2  123.689
 17.7796  15028.1  122.333
 17.9776  14954.4  122.816
 18.1756  15248  122.747
 18.3736  14840.9  121.577
 18.5716  14620.1  120.425
 18.7696  14548.3  119.695
 18.9676  14321.3  118.552
 19.1656  14055.5  118.044
 19.3636  13967.1  117.862
 19.5616  13974.6  118.061
 19.7596  14352.7  119.033
 19.9576  14726.8  120.629
 20.1556  13698.4  116.858
 20.3536  13448.3  115.173
 20.5516  13297.7  114.968
 20.7496  13222.2  114.492
 20.9476  13251.1  114.458
 21.1456  13032.4  113.836
 21.3436  12956.3  113.457
 21.5416  12780.2  112.697
 21.7396  12661.1  112.015
 21.9376  12613.7  111.581
 22.1356  12854.2  112.908
 22.3336  12319.9  110.676
 22.5316  12413.5  111.191
 22.7296  12274.4  109.926
 22.9276  12308.6  110.755
 23.1256  12433  110.792
 23.3236  12661  112.371
 23.5216  12661.2  112.002
 23.7196  12613.6  111.96
 23.9176  12454.3  110.788
 24.1156  12182  110.008
 24.3136  11929.7  109.679
 24.5116  11938.7  109.237
 24.7096  11844.5  108.611
 24.9076  11644.4  107.728
 25.1056  11359.9  106.868
 25.3036  10992.6  104.653
 25.5016  11082.5  105.118
 25.6996  11004.5  104.33
 25.8976  11119  105.302
 26.0956  10982.7  104.681
 26.2936  10941.2  104.132
 26.4916  11070  104.612
 26.6896  10784.3  103.553
 26.8876  10614.6  102.589
 27.0856  10477.4  101.991
 27.2836  10425  101.613
 27.4816  10306  100.971
 27.6796  10232.6  100.982
 27.8776  10418.3  101.743
 28.0756  10115.4  100.547
 28.2736  10058.8  99.8434
 28.4716  9889.15  99.055
 28.6696  9882.97  98.87
 28.8676  9892.33  99.2704
 29.0656  9706.99  98.3094
 29.2636  9733.42  98.2329
 29.4616  9261.64  96.0149
 29.6596  9401.23  96.3058
 29.8576  9177.72  95.8294
 30.0556  9281.43  96.2463
 30.2536  9505.87  97.193
 30.4516  9524.75  96.9103
 30.6496  9558.82  96.8301
 30.8476  9450.73  96.7342
 31.0456  9462.67  96.7386
 31.2436  9524.03  96.3244
 31.4416  9254.09  95.1288
 31.6396  9356.5  95.695
 31.8376  9503.84  95.9664
 32.0356  9306.68  95.5361
 32.2336  9301.64  94.9163
 32.4316  8910.31  93.3023
 32.6296  8911.76  93.1469
 32.8276  8971.13  93.2426
 33.0256  8802.73  92.4291
 33.2236  8941.92  93.3
 33.4216  8882.11  92.6787
 33.6196  8798.96  92.5285
 33.8176  8740  92.3895
 34.0156  8827.56  92.4773
 34.2136  8888.47  92.8165
 34.4116  8604.49  91.4942
 34.6096  8685.16  91.7866
 34.8076  8597.92  91.7507
 35.0056  8526.55  91.0377
 35.2036  8714.58  92.2615
 35.4016  8447.12  90.7546
 35.5996  8364.37  90.3408
 35.7976  8314.94  90.3283
 35.9956  8587.03  91.4553
 36.1936  8460.95  90.6283
 36.3916  8294.52  89.9311
 36.5896  8305.78  90.9809
 36.7876  8093.61  89.2106
 36.9856  7964.45  88.527
 37.1836  7937.79  87.4951
 37.3816  8063.32  88.5504
 37.5796  8045.87  90.1555
 37.7776  8174.17  89.2384
 37.9756  8149.37  88.9877
 38.1736  8209.79  89.5011
 38.3716  8182.31  89.6337
 38.5696  7989.19  88.9411
 38.7676  7977.82  88.3888
 38.9656  8034.16  88.3194
 39.1636  8101.83  88.9698
 39.3616  8011.38  88.4115
 39.5596  7838.64  88.2883
 39.7576  7860.07  87.8014
 39.9556  7921.6  87.7804
 40.1536  8007.93  88.4521
 40.3516  8036.24  88.6212
 40.5496  7974.58  88.5394
 40.7476  8034.22  88.8624
 40.9456  8054.7  88.7387
 41.1436  8074.95  88.5666
 41.3416  7931.73  88.1218
 41.5396  7888.61  87.6817
 41.7376  7883.62  87.9057
 41.9356  7821.11  87.4303
 42.1336  8044.91  88.8102
 42.3316  7831.46  87.8325
 42.5296  7924.71  87.8653
 42.7276  7828.47  87.5696
 42.9256  7891.81  87.7992
 43.1236  7856.92  87.7144
 43.3216  7885.92  87.6132
 43.5196  7744.8  86.8921
 43.7176  7788.85  87.5409
 43.9156  7450.25  85.5313
 44.1136  7675.63  86.3726
 44.3116  7678.71  86.403
 44.5096  7560.89  86.0452
 44.7076  7591.8  86.1508
 44.9056  7629.36  86.2271
 45.1036  7555.22  85.4292
 45.3016  7590.57  86.1222
 45.4996  7482.17  85.458
 45.6976  7395.5  85.1402
 45.8956  7532.14  85.7264
 46.0936  7598.89  85.8563
 46.2916  7617.13  86.1923
 46.4896  7632.6  86.3081
 46.6876  7427.49  85.8507
 46.8856  7461.64  85.3079
 47.0836  7411.48  85.2731
 47.2816  7355.27  84.8345
 47.4796  7425.83  85.3394
 47.6776  7417.55  86.2632
 47.8756  7454.77  85.6329
 48.0736  7483.67  86.2654
 48.2716  7314.64  85.1017
 48.4696  7468.62  85.5753
 48.6676  7342.61  85.4537
 48.8656  7389.89  85.4519
 49.0636  7484.68  85.938
 49.2616  7324.62  85.0543
 49.4596  7373.92  84.8803
 49.6576  7318.64  84.806
 49.8556  7290.81  84.6573
 50.0536  7351.7  85.4729
 50.2516  7371.54  85.7182
 50.4496  7272.78  84.7952
 50.6476  7240.22  84.2765
 50.8456  7370.74  85.1078
 51.0436  7032.33  83.5992
 51.2416  7058.72  83.4323
 51.4396  7036.16  83.7036
 51.6376  7021.21  83.4336
 51.8356  7007.88  82.9685
 52.0336  7040.97  83.6791
 52.2316  6946.41  83.4804
 52.4296  6943.15  83.1595
 52.6276  6934.5  83.2201
 52.8256  7057.68  83.5049
 53.0236  7059.03  84.1589
 53.2216  6993.76  83.7848
 53.4196  7043.56  83.9855
 53.6176  6981.42  84.1498
 53.8156  6831.08  82.8986
 54.0136  6580.05  81.5476
 54.2116  6821.27  82.6349
 54.4096  6607.53  81.4151
 54.6076  6601.51  81.7195
 54.8056  6557.58  81.2255
 55.0036  6662.76  82.1475
 55.2016  6537.61  80.9477
 55.3996  6469.1  80.598
 55.5976  6546.08  81.2647
 55.7956  6488.68  80.7271
 55.9936  6654.72  81.8802
 56.1916  6489.42  80.8903
 56.3896  6298.14  79.6747
 56.5876  6351.24  80.5548
 56.7856  6318  79.8475
 56.9836  6378.95  79.9911
 57.1816  6431.39  80.6972
 57.3796  6279.83  79.5547
 57.5776  6317.08  79.6844
 57.7756  6145.44  79.257
 57.9736  6213.36  79.3579
 58.1716  6104.94  78.931
 58.3696  5950.43  77.681
 58.5676  6026.91  77.6617
 58.7656  6043.48  78.4417
 58.9636  5869.8  77.3309
 59.1616  5957.6  78.0396
 59.3596  5903.27  76.9601
 59.5576  5969.8  77.4497
 59.7556  5979.09  77.9262
 59.9536  5993.57  77.9198
 60.1516  5990.24  78.7435
 60.1996  0.0000000E+00  0.0000000E+00