File: docs/examples/opeando_xrd/IS17_D/Data/IS17_D/17_Db_f00005.xye
# /beamlines/bl04/projects/cycle2025-II/20250340211-lsimonelli/DATA/IS17_D/17_Db_f00005.xye : mythproc.py merge -s 0.006 -l 0.5 -f /beamlines/bl04/inhouse/ff/FlatField/ff_20Nov2024rod8mm60s_17keV.raw -b True -c true -o xye /beamlines/bl04/projects/cycle2025-II/20250340211-lsimonelli/DATA/IS17_D/17_Db_00005.dat
# IsMon = [6758453, 6759548, 6761942]  IsPos = [-1.5000, -2.4885, -3.4988]
# Wave = 0.4962  CalPath /beamlines/bl04/projects/cycle2025-II/20250340211-lsimonelli/DATA/Align/Si_Pos1_25keV_f00001.cal
# Date = 2025-09-23_19:05:41 Dt = 4.8000  Bin = 0.0060  <imon> = 6759981 +/- 1457 (Min/Max) 6758453 / 6761942
# icurr 251.2242  mocoIn 1.7135E-05  mocoOut 0.8034  i15 7.07479e+06  imon 6.75998e+06  i7 6.6667  iEMpd_timer 4.8000  iEMpd_1 3.4321E-08  iEMpd_2 7.8635E-08  iEMpd_3 1.5553E-08  iEMpd_4 4.7045E-08  iEMhp_timer 4.8000  iEMhp_1 4.9093E-06  iEMhp_2 -2.5150E-08  iEMhp_3 -2.4090E-08  iEMhp_4 -2.0453E-08
#      9776
 1.7416  69971.7  264.627
 1.9396  47775.5  218.949
 2.1376  34926.4  187.198
 2.3356  30946.9  175.841
 2.5336  29352  171.853
 2.7316  26331.5  162.878
 2.9296  25142.4  159.31
 3.1276  24696.5  157.439
 3.3256  24011.9  154.901
 3.5236  25668.2  160.106
 3.7216  23482.3  154.234
 3.9196  22844.5  151.338
 4.1176  22909.7  151.349
 4.3156  23975.2  154.984
 4.5136  26232.2  161.11
 4.7116  27183.8  165.129
 4.9096  26458.7  162.357
 5.1076  26254.4  162.304
 5.3056  26125.5  161.623
 5.5036  25755  160.474
 5.7016  26295.2  162.023
 5.8996  26963  163.311
 6.0976  27732.9  167.015
 6.2956  27680.4  166.214
 6.4936  28498.6  167.86
 6.6916  28946.7  170.157
 6.8896  29959.1  172.949
 7.0876  31283  177.396
 7.2856  30524.1  174.373
 7.4836  31056.9  175.244
 7.6816  31718.4  177.598
 7.8796  32745.3  180.458
 8.0776  34188.6  185.371
 8.2756  35773.2  188.248
 8.4736  36238.6  189.286
 8.6716  35416  187.743
 8.8696  36525.5  191.159
 9.0676  35778.7  188.517
 9.2656  34571.8  186.001
 9.4636  33561.4  181.742
 9.6616  32680.1  180.051
 9.8596  32093.7  177.908
 10.0576  29909.3  172.407
 10.2556  29327.5  171.16
 10.4536  28627  168.695
 10.6516  28032.9  167.157
 10.8496  26662.5  162.427
 11.0476  25733  159.544
 11.2456  25332.2  158.873
 11.4436  26066.5  160.328
 11.6416  25066.2  157.557
 11.8396  23972.8  154.282
 12.0376  23288.5  151.701
 12.2356  23150.4  151.708
 12.4336  23208.9  151.417
 12.6316  22956.5  150.857
 12.8296  23198.1  151.261
 13.0276  23360.1  151.993
 13.2256  23433.7  152.594
 13.4236  23569.8  152.804
 13.6216  23838  153.67
 13.8196  26142.9  160.386
 14.0176  23034.2  151.137
 14.2156  22477.4  148.346
 14.4136  21459.7  146.306
 14.6116  21120.4  144.359
 14.8096  20434.9  141.968
 15.0076  19579.3  142.806
 15.2056  18527  134.815
 15.4036  17666.5  132.449
 15.6016  17492.2  130.904
 15.7996  16896.2  128.911
 15.9976  16603.3  130.62
 16.1956  16356.5  127.583
 16.3936  15955.7  125.201
 16.5916  15795.7  125.21
 16.7896  15948.1  125.872
 16.9876  15761.3  126.57
 17.1856  15374.1  123.421
 17.3836  15009.9  121.868
 17.5816  14648.3  120.86
 17.7796  14558.2  120.417
 17.9776  14166.2  119.533
 18.1756  14335  119.017
 18.3736  14066.8  118.365
 18.5716  13847.5  117.203
 18.7696  13912.1  117.047
 18.9676  13679  115.867
 19.1656  13335.4  114.965
 19.3636  13306.9  115.045
 19.5616  13395.8  115.589
 19.7596  13839.9  116.893
 19.9576  14162.4  118.29
 20.1556  13388.8  115.526
 20.3536  13119.2  113.753
 20.5516  13027.6  113.799
 20.7496  12670.4  112.082
 20.9476  12695  112.037
 21.1456  12506.2  111.516
 21.3436  12462.3  111.27
 21.5416  12390.4  110.961
 21.7396  12180.2  109.863
 21.9376  12062.6  109.11
 22.1356  12214.2  110.064
 22.3336  11933  108.898
 22.5316  11889.5  108.803
 22.7296  11894.1  108.212
 22.9276  11885.1  108.822
 23.1256  12181.8  109.652
 23.3236  12129.3  109.985
 23.5216  12177.4  109.843
 23.7196  12101.5  109.673
 23.9176  12236.9  109.819
 24.1156  11809.2  108.319
 24.3136  11517.7  107.788
 24.5116  11681.2  108.066
 24.7096  11360.4  106.391
 24.9076  11130.2  105.348
 25.1056  10945.3  104.652
 25.3036  10590.3  102.717
 25.5016  10586  102.739
 25.6996  10682.5  102.794
 25.8976  10742  103.505
 26.0956  10593.2  102.797
 26.2936  10630.3  102.645
 26.4916  10767.8  103.166
 26.6896  10389.8  101.631
 26.8876  10313.3  101.125
 27.0856  10147.6  100.321
 27.2836  9999.14  99.5229
 27.4816  9945.42  99.1926
 27.6796  9874.67  99.1922
 27.8776  10135.3  100.362
 28.0756  9698.15  98.4479
 28.2736  9775.68  98.428
 28.4716  9484.45  97.0022
 28.6696  9526.36  97.0725
 28.8676  9494.18  97.2526
 29.0656  9364.22  96.5537
 29.2636  9474.35  96.8404
 29.4616  9050.81  94.9068
 29.6596  9043.84  94.4506
 29.8576  8856.01  94.1249
 30.0556  9134.79  95.47
 30.2536  9196.84  95.5917
 30.4516  9204.52  95.2835
 30.6496  9194.25  94.963
 30.8476  9202.21  95.4381
 31.0456  9160.67  95.1949
 31.2436  9109.63  94.2081
 31.4416  8965.34  93.641
 31.6396  8978.31  93.7502
 31.8376  9085.47  93.8469
 32.0356  8874.33  93.2845
 32.2336  8967.84  93.2105
 32.4316  8621.23  91.7774
 32.6296  8698.68  91.9546
 32.8276  8746.13  92.0643
 33.0256  8583.11  91.2597
 33.2236  8639.33  91.7073
 33.4216  8550.65  90.9256
 33.6196  8493.59  90.9131
 33.8176  8559.28  91.4314
 34.0156  8340.33  89.8854
 34.2136  8491.74  90.7177
 34.4116  8251.06  89.5916
 34.6096  8210.05  89.2486
 34.8076  8238.39  89.8137
 35.0056  8337.2  90.0154
 35.2036  8448.76  90.8512
 35.4016  8146.58  89.1242
 35.5996  8040  88.5728
 35.7976  8079.5  89.0533
 35.9956  8263.66  89.7152
 36.1936  8204.42  89.2362
 36.3916  8014.21  88.4038
 36.5896  8105.04  90.34
 36.7876  7778.98  87.4515
 36.9856  7634.19  86.657
 37.1836  7812.96  86.7904
 37.3816  7739.26  86.7401
 37.5796  7788.86  88.7067
 37.7776  7843.37  87.414
 37.9756  7909.12  87.6647
 38.1736  8066.66  88.7192
 38.3716  7812.36  87.5863
 38.5696  7750.69  87.601
 38.7676  7588.43  86.2164
 38.9656  7728.85  86.6347
 39.1636  7723.59  86.852
 39.3616  7646.15  86.3816
 39.5596  7534.81  86.5549
 39.7576  7532.4  85.9464
 39.9556  7732.53  86.7265
 40.1536  7790.61  87.2384
 40.3516  7774.81  87.1755
 40.5496  7658.1  86.5459
 40.7476  7747.28  87.2669
 40.9456  7836.38  87.5271
 41.1436  7789.01  86.9906
 41.3416  7621.14  86.3736
 41.5396  7638.58  86.2889
 41.7376  7712.98  86.9596
 41.9356  7504.67  85.6322
 42.1336  7819.32  87.5504
 42.3316  7650.98  86.8109
 42.5296  7628.19  86.2133
 42.7276  7638.94  86.5095
 42.9256  7617.04  86.2549
 43.1236  7440.85  85.3532
 43.3216  7603.23  86.1304
 43.5196  7438.61  85.1488
 43.7176  7511.55  85.9625
 43.9156  7282.7  84.5587
 44.1136  7304.29  84.249
 44.3116  7384.6  84.7235
 44.5096  7276.15  84.4029
 44.7076  7193.95  83.8535
 44.9056  7437.09  85.1325
 45.1036  7497.33  85.0929
 45.3016  7394.54  85.0093
 45.4996  7317.1  84.5025
 45.6976  7227.15  84.1585
 45.8956  7359.18  84.7463
 46.0936  7385.04  84.6562
 46.2916  7411.31  85.0267
 46.4896  7282.62  84.3047
 46.6876  7332.17  85.3092
 46.8856  7190.68  83.748
 47.0836  7182.67  83.9528
 47.2816  7152.35  83.6584
 47.4796  7324.67  84.7627
 47.6776  7136.3  84.6066
 47.8756  7229.2  84.3279
 48.0736  7206.19  84.6525
 48.2716  6986.4  83.1665
 48.4696  7316.84  84.703
 48.6676  7226.44  84.7705
 48.8656  7173.49  84.1935
 49.0636  7214.2  84.3712
 49.2616  6997.23  83.1225
 49.4596  7202.1  83.8971
 49.6576  7091.06  83.4634
 49.8556  7153.66  83.8577
 50.0536  7138.43  84.2081
 50.2516  7073.11  83.9448
 50.4496  7083.5  83.686
 50.6476  7176.06  83.9037
 50.8456  7180.31  84.0115
 51.0436  6918.75  82.9182
 51.2416  6825.6  82.0284
 51.4396  6806.47  82.3191
 51.6376  6822.5  82.2396
 51.8356  6882.48  82.2216
 52.0336  6934.43  83.0449
 52.2316  6802.27  82.6082
 52.4296  6863.86  82.677
 52.6276  6726.43  81.9556
 52.8256  6835.04  82.1766
 53.0236  6859.2  82.9611
 53.2216  6739.86  82.2622
 53.4196  6802.43  82.5746
 53.6176  6852.37  83.37
 53.8156  6766.24  82.5186
 54.0136  6502.91  81.0601
 54.2116  6713.72  82.014
 54.4096  6454.66  80.4731
 54.6076  6505.16  81.1347
 54.8056  6419.89  80.3654
 55.0036  6469.69  80.9563
 55.2016  6410.44  80.1438
 55.3996  6284.78  79.4409
 55.5976  6298.95  79.7134
 55.7956  6294.6  79.507
 55.9936  6417.38  80.3964
 56.1916  6172.91  78.8812
 56.3896  6108.44  78.4581
 56.5876  6199.08  79.5784
 56.7856  6088.73  78.3915
 56.9836  6219.71  78.9912
 57.1816  6206.09  79.2507
 57.3796  6099.29  78.4004
 57.5776  6102.76  78.3116
 57.7756  6038.02  78.5557
 57.9736  6044.85  78.2719
 58.1716  5959.11  77.9792
 58.3696  5867.18  77.1398
 58.5676  5864.81  76.6022
 58.7656  5804.15  76.8662
 58.9636  5826.36  77.0432
 59.1616  5818.99  77.1237
 59.3596  5830.74  76.4623
 59.5576  5824.54  76.4827
 59.7556  5570.5  75.1979
 59.9536  5808.98  76.6915
 60.1516  5882.95  78.0158
 60.1996  0.0000000E+00  0.0000000E+00