File: docs/examples/opeando_xrd/IS17_D/Data/IS17_D/17_Da_f00130.xye
# /beamlines/bl04/projects/cycle2025-II/20250340211-lsimonelli/DATA/IS17_D/17_Da_f00130.xye : mythproc.py merge -s 0.006 -l 0.5 -f /beamlines/bl04/inhouse/ff/FlatField/ff_20Nov2024rod8mm60s_17keV.raw -b True -c true -o xye /beamlines/bl04/projects/cycle2025-II/20250340211-lsimonelli/DATA/IS17_D/17_Da_00130.dat
# IsMon = [6765453, 6764982, 6764808]  IsPos = [-1.4999, -2.4884, -3.4989]
# Wave = 0.4962  CalPath /beamlines/bl04/projects/cycle2025-II/20250340211-lsimonelli/DATA/Align/Si_Pos1_25keV_f00001.cal
# Date = 2025-09-25_05:47:57 Dt = 4.8000  Bin = 0.0060  <imon> = 6765081 +/- 272 (Min/Max) 6764808 / 6765453
# icurr 250.7265  mocoIn 1.7099E-05  mocoOut 0.8020  i15 7.08483e+06  imon 6.76508e+06  i7 6.0000  iEMpd_timer 4.8000  iEMpd_1 3.3741E-08  iEMpd_2 7.9415E-08  iEMpd_3 1.7438E-08  iEMpd_4 4.8108E-08  iEMhp_timer 4.8000  iEMhp_1 4.8969E-06  iEMhp_2 -2.6378E-08  iEMhp_3 -2.4588E-08  iEMhp_4 -2.2269E-08
#      9776
 1.7416  70281.8  265.176
 1.9396  46024.2  214.866
 2.1376  32767.1  181.293
 2.3356  29186.4  170.742
 2.5336  26994.9  164.785
 2.7316  25345.3  159.786
 2.9296  24086.1  155.929
 3.1276  23736.9  154.332
 3.3256  23678.4  153.826
 3.5236  25628.9  159.839
 3.7216  23341.2  153.777
 3.9196  22813  151.264
 4.1176  22701.1  150.656
 4.3156  23954.8  154.923
 4.5136  26297.7  161.31
 4.7116  27487  166.054
 4.9096  26898.1  163.704
 5.1076  26365.3  162.648
 5.3056  26863.3  163.907
 5.5036  26965.5  164.115
 5.7016  27148.2  164.637
 5.8996  27810.8  165.85
 6.0976  28415.7  169.076
 6.2956  28975  170.071
 6.4936  29641.3  171.199
 6.6916  29965.3  173.139
 6.8896  30978.1  175.897
 7.0876  31807.7  178.97
 7.2856  31787.2  177.965
 7.4836  32160.3  178.34
 7.6816  32983.7  181.142
 7.8796  34638.4  185.629
 8.0776  36199  190.756
 8.2756  38023.3  194.094
 8.4736  38700.5  195.618
 8.6716  37920.6  194.279
 8.8696  37714.4  194.221
 9.0676  37351.3  192.642
 9.2656  36090.6  190.054
 9.4636  36124.5  188.538
 9.6616  35176  186.827
 9.8596  33896.6  182.848
 10.0576  32148.8  178.75
 10.2556  30750.3  175.251
 10.4536  30254.2  173.434
 10.6516  29377  171.098
 10.8496  28526.4  168.009
 11.0476  27928.9  166.265
 11.2456  27339.6  165.044
 11.4436  27904.1  165.885
 11.6416  26670.5  162.541
 11.8396  25209.8  158.23
 12.0376  25111  157.561
 12.2356  24646.6  156.499
 12.4336  24558.9  155.763
 12.6316  24152.2  154.732
 12.8296  24530.1  155.579
 13.0276  25134.4  157.669
 13.2256  24960.7  157.488
 13.4236  24773  156.658
 13.6216  24659.3  156.316
 13.8196  24776.7  156.456
 14.0176  24192.6  154.793
 14.2156  23968  153.199
 14.4136  22846.9  150.961
 14.6116  22484.2  148.961
 14.8096  21824.2  146.743
 15.0076  20473.9  145.957
 15.2056  20333.7  141.245
 15.4036  19194.9  138.055
 15.6016  19051.7  136.625
 15.7996  18392.5  134.521
 15.9976  17656.5  135.379
 16.1956  17159  130.705
 16.3936  16886.7  128.829
 16.5916  16696.6  128.743
 16.7896  16773.1  129.098
 16.9876  16536.3  129.656
 17.1856  16250.7  126.889
 17.3836  15754.3  124.829
 17.5816  15342.5  123.683
 17.7796  15195.8  123.022
 17.9776  15076.3  123.332
 18.1756  15392.7  123.307
 18.3736  15023.1  122.336
 18.5716  14771.9  121.058
 18.7696  14979.7  121.462
 18.9676  14455.6  119.128
 19.1656  14324.2  119.149
 19.3636  14446.5  119.862
 19.5616  14207.6  119.036
 19.7596  14477.7  119.55
 19.9576  15108.3  122.188
 20.1556  14286.6  119.35
 20.3536  13841  116.846
 20.5516  13661.4  116.537
 20.7496  13369.7  115.225
 20.9476  13289.1  114.626
 21.1456  13422.5  115.536
 21.3436  13125.8  114.2
 21.5416  13169.9  114.396
 21.7396  12963.5  113.338
 21.9376  12919.6  112.914
 22.1356  12977.8  113.282
 22.3336  13005.5  113.713
 22.5316  12943.2  113.528
 22.7296  12903.2  112.704
 22.9276  12683  112.422
 23.1256  13065.7  113.575
 23.3236  12863.8  113.248
 23.5216  12703.9  112.197
 23.7196  12704.9  112.148
 23.9176  12562  111.268
 24.1156  12417.4  111.104
 24.3136  12098.5  110.465
 24.5116  12126.8  110.116
 24.7096  11765.4  108.279
 24.9076  11471.5  106.935
 25.1056  11327.6  106.737
 25.3036  11275.8  106
 25.5016  11282.3  106.064
 25.6996  11189.3  105.206
 25.8976  11188.2  105.64
 26.0956  11287.1  106.128
 26.2936  11223.9  105.469
 26.4916  11166.8  105.078
 26.6896  10789  103.586
 26.8876  10699.5  103.006
 27.0856  10834.5  103.711
 27.2836  10603.9  102.493
 27.4816  10458.8  101.725
 27.6796  10454.9  102.08
 27.8776  10333.2  101.341
 28.0756  10361.4  101.769
 28.2736  10306.2  101.077
 28.4716  10108.8  100.148
 28.6696  10094.7  99.9298
 28.8676  10026.1  99.9389
 29.0656  9922.81  99.4032
 29.2636  9851.28  98.8294
 29.4616  9792.15  98.7245
 29.6596  9857.46  98.6104
 29.8576  9689.23  98.46
 30.0556  9834.94  99.0704
 30.2536  9852.8  98.9522
 30.4516  9513.61  96.8859
 30.6496  9651.88  97.3101
 30.8476  9493.7  96.9548
 31.0456  9508.45  96.9879
 31.2436  9541.56  96.4181
 31.4416  9276.39  95.2448
 31.6396  9340.99  95.6272
 31.8376  9375.23  95.3508
 32.0356  9325.95  95.6644
 32.2336  9270.76  94.7631
 32.4316  9172.29  94.6697
 32.6296  9098.87  94.1276
 32.8276  9214.58  94.4962
 33.0256  9044.26  93.6954
 33.2236  9040.21  93.8133
 33.4216  9053.18  93.583
 33.6196  9052.47  93.8669
 33.8176  8997.39  93.7498
 34.0156  8970.38  93.2171
 34.2136  8948.11  93.141
 34.4116  8836.11  92.7073
 34.6096  8859.72  92.7117
 34.8076  8648.33  92.0003
 35.0056  8843.14  92.7264
 35.2036  8566.67  91.4749
 35.4016  8547.65  91.2959
 35.5996  8412.54  90.6051
 35.7976  8594.43  91.8555
 35.9956  8572.61  91.3798
 36.1936  8442.17  90.5459
 36.3916  8440.81  90.7212
 36.5896  8379.73  91.3621
 36.7876  8281.53  90.2435
 36.9856  8348.54  90.6361
 37.1836  8222.39  89.0493
 37.3816  8395.32  90.3511
 37.5796  8279.01  91.4557
 37.7776  8091.26  88.7778
 37.9756  8191.76  89.2176
 38.1736  8316.27  90.0926
 38.3716  8225.85  89.8805
 38.5696  8078.91  89.4525
 38.7676  7883.63  87.8702
 38.9656  8084.5  88.6143
 39.1636  7944.15  88.1028
 39.3616  8104.36  88.9243
 39.5596  7981.81  89.1024
 39.7576  7963.23  88.3693
 39.9556  7957.49  87.9696
 40.1536  8097.31  88.9522
 40.3516  8094.76  88.9453
 40.5496  8098.79  89.23
 40.7476  8100.09  89.2433
 40.9456  8176.71  89.41
 41.1436  8136.58  88.905
 41.3416  7964.19  88.2999
 41.5396  7998  88.2914
 41.7376  7985.96  88.4961
 41.9356  8027.07  88.5764
 42.1336  8003.71  88.5926
 42.3316  7987.03  88.7082
 42.5296  7894.65  87.7052
 42.7276  7973.13  88.3844
 42.9256  7982.83  88.3052
 43.1236  7909.28  88.0062
 43.3216  7929.47  87.8682
 43.5196  7756.41  86.9658
 43.7176  7765.58  87.4109
 43.9156  7736.72  87.1648
 44.1136  7722.95  86.6355
 44.3116  7654.59  86.2626
 44.5096  7678.8  86.709
 44.7076  7680.3  86.6502
 44.9056  7659.28  86.3916
 45.1036  7668.13  86.0691
 45.3016  7419.13  85.158
 45.4996  7476  85.419
 45.6976  7379.72  85.0469
 45.8956  7454.96  85.2937
 46.0936  7384.09  84.886
 46.2916  7441.1  85.1967
 46.4896  7420.84  85.1149
 46.6876  7352.51  85.4354
 46.8856  7284.46  84.2885
 47.0836  7169.18  83.8604
 47.2816  7149.97  83.6441
 47.4796  7213.11  84.1202
 47.6776  7065.39  84.1887
 47.8756  7056.6  83.3167
 48.0736  7182.86  84.518
 48.2716  7003.11  83.2741
 48.4696  7147.58  83.7186
 48.6676  7086.59  83.9454
 48.8656  7036.26  83.3761
 49.0636  7101.24  83.6998
 49.2616  6903.38  82.5668
 49.4596  6886.07  82.0338
 49.6576  7011.24  82.9917
 49.8556  6966.97  82.7567
 50.0536  6893.33  82.7645
 50.2516  6851.29  82.6421
 50.4496  6882.9  82.4906
 50.6476  6901.96  82.2891
 50.8456  6891.9  82.3028
 51.0436  6747.05  81.8887
 51.2416  6710.47  81.3444
 51.4396  6521.73  80.5779
 51.6376  6686.9  81.4149
 51.8356  6650.9  80.8322
 52.0336  6595.83  80.9987
 52.2316  6464.02  80.5306
 52.4296  6614.48  81.154
 52.6276  6596.21  81.1546
 52.8256  6599.59  80.741
 53.0236  6455.85  80.4916
 53.2216  6354.84  79.8929
 53.4196  6315.08  79.5657
 53.6176  6323.88  80.0977
 53.8156  6384.19  80.1435
 54.0136  6357.29  80.1567
 54.2116  6223.34  78.9725
 54.4096  6417.6  80.2541
 54.6076  6274.53  79.6989
 54.8056  6233.34  79.2191
 55.0036  6345.27  80.3223
 55.2016  6306.5  79.6755
 55.3996  6264.26  79.3258
 55.5976  6276.96  79.5916
 55.7956  6272.91  79.3873
 55.9936  6290.83  79.637
 56.1916  6347.45  80.0115
 56.3896  6286.07  79.6149
 56.5876  6169.87  79.4177
 56.7856  6206.49  79.1425
 56.9836  6138.9  78.4905
 57.1816  6242.17  79.4324
 57.3796  6225.08  79.2246
 57.5776  6136.16  78.5858
 57.7756  6211.58  79.7031
 57.9736  6124.8  78.8232
 58.1716  6197.53  79.5312
 58.3696  6137.22  78.8901
 58.5676  6224.42  78.9236
 58.7656  6307.6  80.1332
 58.9636  6297.93  80.1076
 59.1616  6215.81  79.7135
 59.3596  6273.43  79.3301
 59.5576  6360.03  79.9344
 59.7556  6297.2  79.9657
 59.9536  6359.9  80.2591
 60.1516  6325.53  80.9106
 60.1996  6304.68  83.9915