File: docs/examples/opeando_xrd/IS17_D/Data/IS17_D/17_Db_f00141.xye
# /beamlines/bl04/projects/cycle2025-II/20250340211-lsimonelli/DATA/IS17_D/17_Db_f00141.xye : mythproc.py merge -s 0.006 -l 0.5 -f /beamlines/bl04/inhouse/ff/FlatField/ff_20Nov2024rod8mm60s_17keV.raw -b True -c true -o xye /beamlines/bl04/projects/cycle2025-II/20250340211-lsimonelli/DATA/IS17_D/17_Db_00141.dat
# IsMon = [6777735, 6778160, 6781229]  IsPos = [-1.5000, -2.4884, -3.4988]
# Wave = 0.4962  CalPath /beamlines/bl04/projects/cycle2025-II/20250340211-lsimonelli/DATA/Align/Si_Pos1_25keV_f00001.cal
# Date = 2025-09-25_09:00:53 Dt = 4.8000  Bin = 0.0060  <imon> = 6779041 +/- 1557 (Min/Max) 6777735 / 6781229
# icurr 252.3076  mocoIn 1.7211E-05  mocoOut 0.8077  i15 7.10161e+06  imon 6.77904e+06  i7 4.3333  iEMpd_timer 4.8000  iEMpd_1 3.5341E-08  iEMpd_2 7.7931E-08  iEMpd_3 1.9001E-08  iEMpd_4 4.7941E-08  iEMhp_timer 4.8000  iEMhp_1 4.9283E-06  iEMhp_2 -2.6863E-08  iEMhp_3 -2.3322E-08  iEMhp_4 -2.0531E-08
#      9776
 1.7416  70307.2  265.257
 1.9396  48935.1  221.59
 2.1376  35657.4  189.143
 2.3356  31906.1  178.542
 2.5336  29719.9  172.923
 2.7316  27217.4  165.599
 2.9296  25902.9  161.709
 3.1276  25568  160.197
 3.3256  24752.2  157.279
 3.5236  26319.8  161.984
 3.7216  24169.3  156.473
 3.9196  23964.7  154.985
 4.1176  23746.6  154.091
 4.3156  24535  156.784
 4.5136  27002.6  163.458
 4.7116  28047.9  167.736
 4.9096  27195.2  164.598
 5.1076  27028.3  164.677
 5.3056  27028  164.39
 5.5036  27023.1  164.294
 5.7016  27522.1  165.762
 5.8996  27953.6  166.283
 6.0976  28997.1  170.792
 6.2956  29109.4  170.451
 6.4936  29765.2  171.55
 6.6916  29920.4  172.989
 6.8896  30875.1  175.574
 7.0876  32144.3  179.82
 7.2856  31640  177.533
 7.4836  32176.4  178.379
 7.6816  32756.9  180.493
 7.8796  33696.8  183.063
 8.0776  35897.8  189.95
 8.2756  37099.3  191.706
 8.4736  37712.2  193.098
 8.6716  37072.1  192.08
 8.8696  37980.4  194.925
 9.0676  37065.9  191.882
 9.2656  35936.3  189.634
 9.4636  34930.1  185.411
 9.6616  34453.4  184.872
 9.8596  33757.4  182.462
 10.0576  31719.2  177.537
 10.2556  31180.2  176.491
 10.4536  31018.4  175.614
 10.6516  31367.1  176.822
 10.8496  28327.2  167.424
 11.0476  27565.4  165.177
 11.2456  27742.2  166.263
 11.4436  27275.8  164.009
 11.6416  26378.5  161.626
 11.8396  25352.5  158.666
 12.0376  24515.4  155.652
 12.2356  24429.7  155.808
 12.4336  24402.4  155.263
 12.6316  24132.3  154.674
 12.8296  24370.4  155.035
 13.0276  24760.6  156.487
 13.2256  24662.6  156.541
 13.4236  24862.4  156.946
 13.6216  24890.8  157.036
 13.8196  27154.4  163.487
 14.0176  24047.2  154.424
 14.2156  23805.8  152.66
 14.4136  22381  149.412
 14.6116  22108.8  147.701
 14.8096  21378.6  145.215
 15.0076  20387.2  145.715
 15.2056  19671.9  138.915
 15.4036  18538  135.681
 15.6016  18127.7  133.261
 15.7996  17640.4  131.725
 15.9976  17377.9  133.635
 16.1956  17240.1  130.964
 16.3936  16781.9  128.415
 16.5916  16670.1  128.627
 16.7896  16794.7  129.173
 16.9876  16386.3  129.066
 17.1856  16264  126.95
 17.3836  15676.4  124.545
 17.5816  15443.4  124.094
 17.7796  15525  124.356
 17.9776  15192.4  123.796
 18.1756  15318.6  123.033
 18.3736  15106.2  122.666
 18.5716  14693.6  120.731
 18.7696  14710.3  120.359
 18.9676  14451.3  119.091
 19.1656  14211.6  118.688
 19.3636  14216.3  118.907
 19.5616  14106.8  118.613
 19.7596  14250.6  118.617
 19.9576  14720.5  120.606
 20.1556  13895.2  117.685
 20.3536  13681.6  116.166
 20.5516  13440.9  115.582
 20.7496  13246.8  114.598
 20.9476  13411.8  115.154
 21.1456  13276.2  114.898
 21.3436  12947.2  113.412
 21.5416  12788.8  112.736
 21.7396  12813.2  112.683
 21.9376  12735.3  112.111
 22.1356  13089.4  113.941
 22.3336  12578.4  111.827
 22.5316  12449.8  111.341
 22.7296  12632.5  111.521
 22.9276  12428.9  111.275
 23.1256  12614  111.583
 23.3236  12826.1  113.098
 23.5216  12812.2  112.666
 23.7196  12733.6  112.498
 23.9176  12590.5  111.387
 24.1156  12330.3  110.686
 24.3136  12145.2  110.686
 24.5116  12147.4  110.204
 24.7096  11785.7  108.365
 24.9076  11836.1  108.635
 25.1056  11516.3  107.618
 25.3036  11244  105.844
 25.5016  11169  105.531
 25.6996  11189.1  105.202
 25.8976  11235.6  105.859
 26.0956  11102  105.234
 26.2936  11111.3  104.943
 26.4916  11226.4  105.338
 26.6896  10858.4  103.909
 26.8876  10812.4  103.534
 27.0856  10638.8  102.766
 27.2836  10451.8  101.75
 27.4816  10488.5  101.867
 27.6796  10274.9  101.178
 27.8776  10669.6  102.966
 28.0756  10222.3  101.075
 28.2736  10226.1  100.675
 28.4716  10129.1  100.254
 28.6696  10050.1  99.6942
 28.8676  9910.37  99.3608
 29.0656  9872.88  99.1478
 29.2636  9831.22  98.7352
 29.4616  9330.65  96.3603
 29.6596  9651.68  97.5739
 29.8576  9419.58  97.0732
 30.0556  9368.8  96.6837
 30.2536  9370.38  96.4942
 30.4516  9651.64  97.5652
 30.6496  9647.58  97.2718
 30.8476  9683.79  97.912
 31.0456  9651.55  97.7116
 31.2436  9542.98  96.416
 31.4416  9460.29  96.1878
 31.6396  9584.76  96.8648
 31.8376  9460.93  95.7557
 32.0356  9471.02  96.3951
 32.2336  9346.35  95.1587
 32.4316  9069.91  94.1396
 32.6296  9056.52  93.9041
 32.8276  9090.2  93.8572
 33.0256  9016.79  93.5401
 33.2236  9223.79  94.7619
 33.4216  8962.73  93.0934
 33.6196  8973.66  93.4502
 33.8176  8950  93.4869
 34.0156  8817.36  92.4235
 34.2136  8906.58  92.9122
 34.4116  8650.55  91.737
 34.6096  8744.41  92.1105
 34.8076  8621.25  91.875
 35.0056  8674.27  91.8136
 35.2036  8861.12  93.0376
 35.4016  8449.25  90.7595
 35.5996  8525.55  91.2053
 35.7976  8567.24  91.6999
 35.9956  8646.28  91.7712
 36.1936  8708.87  91.9444
 36.3916  8422.13  90.6236
 36.5896  8472.41  91.8922
 36.7876  8148.23  89.5063
 36.9856  8036.26  88.9153
 37.1836  8092.61  88.3378
 37.3816  8189.97  89.2291
 37.5796  8123.25  90.5936
 37.7776  8320.21  90.0388
 37.9756  8276.54  89.6789
 38.1736  8247.55  89.7157
 38.3716  8211.28  89.7919
 38.5696  8018.82  89.1106
 38.7676  8032.75  88.7055
 38.9656  7920.9  87.7128
 39.1636  8003.35  88.4436
 39.3616  7998.59  88.3505
 39.5596  7901.44  88.6421
 39.7576  7875.53  87.8861
 39.9556  8007.57  88.2574
 40.1536  8098.15  88.9451
 40.3516  8114.35  89.05
 40.5496  8028.29  88.8325
 40.7476  8106.37  89.2639
 40.9456  8068.01  88.8129
 41.1436  8120.37  88.8232
 41.3416  7984.79  88.4077
 41.5396  7929.93  87.9096
 41.7376  7983.42  88.4675
 41.9356  7918.08  87.9611
 42.1336  8088.58  89.0532
 42.3316  7925.84  88.3493
 42.5296  7984.08  88.197
 42.7276  7997.86  88.5189
 42.9256  8030.7  88.5689
 43.1236  7819.15  87.4981
 43.3216  7996.93  88.2315
 43.5196  7814.73  87.2855
 43.7176  7762.14  87.3779
 43.9156  7620.76  86.5026
 44.1136  7540.47  85.6009
 44.3116  7641.71  86.1833
 44.5096  7524.21  85.826
 44.7076  7590.92  86.1391
 44.9056  7826.49  87.3318
 45.1036  7648.23  85.9533
 45.3016  7701.53  86.7493
 45.4996  7602.67  86.1356
 45.6976  7485.53  85.6475
 45.8956  7733.28  86.8721
 46.0936  7650.63  86.1557
 46.2916  7673.43  86.5202
 46.4896  7647.02  86.4091
 46.6876  7572.53  86.6979
 46.8856  7486.54  85.455
 47.0836  7518.64  85.8982
 47.2816  7360.49  84.8642
 47.4796  7589.55  86.2763
 47.6776  7387.33  86.084
 47.8756  7508.58  85.9492
 48.0736  7499.06  86.3583
 48.2716  7438.59  85.8217
 48.4696  7612.88  86.3938
 48.6676  7503.82  86.3748
 48.8656  7535.8  86.276
 49.0636  7540.13  86.2476
 49.2616  7348.9  85.188
 49.4596  7328.39  84.6278
 49.6576  7328.57  84.8612
 49.8556  7422.1  85.4191
 50.0536  7412.23  85.8182
 50.2516  7347.81  85.5771
 50.4496  7373.65  85.3822
 50.6476  7397.81  85.1843
 50.8456  7285.13  84.6372
 51.0436  7086.13  83.9139
 51.2416  7070.93  83.4914
 51.4396  7038.63  83.7116
 51.6376  7118.89  84.0064
 51.8356  7142.33  83.7538
 52.0336  7115.81  84.126
 52.2316  7044.22  84.064
 52.4296  6990.06  83.433
 52.6276  6926.28  83.1639
 52.8256  7143.58  83.9994
 53.0236  7015.98  83.9118
 53.2216  6987.16  83.7551
 53.4196  7058.35  84.1081
 53.6176  7006.17  84.307
 53.8156  6957.35  83.682
 54.0136  6726.48  82.4401
 54.2116  6807.16  82.5608
 54.4096  6708.92  82.0433
 54.6076  6657.88  82.0827
 54.8056  6585.14  81.407
 55.0036  6737.02  82.6024
 55.2016  6578.74  81.2041
 55.3996  6450.55  80.486
 55.5976  6550.57  81.2986
 55.7956  6554.08  81.122
 55.9936  6704.68  82.1782
 56.1916  6566.19  81.3712
 56.3896  6297.19  79.6558
 56.5876  6361.25  80.6344
 56.7856  6341.29  79.9938
 56.9836  6454.87  80.4788
 57.1816  6541.41  81.3832
 57.3796  6414.3  80.4068
 57.5776  6404.63  80.2459
 57.7756  6233.51  79.8241
 57.9736  6297.72  79.8926
 58.1716  6129.09  79.0846
 58.3696  6004.43  78.0381
 58.5676  6084.5  78.0232
 58.7656  6090.52  78.74
 58.9636  6054.23  78.5283
 59.1616  6080.06  78.8363
 59.3596  5954.59  77.2696
 59.5576  5980.58  77.4992
 59.7556  5911.94  77.4669
 59.9536  6187.82  79.1515
 60.1516  5934.92  78.3584
 60.1996  0.0000000E+00  0.0000000E+00