File: docs/examples/opeando_xrd/IS17_D/Data/IS17_D/17_Da_f00051.xye
# /beamlines/bl04/projects/cycle2025-II/20250340211-lsimonelli/DATA/IS17_D/17_Da_f00051.xye : mythproc.py merge -s 0.006 -l 0.5 -f /beamlines/bl04/inhouse/ff/FlatField/ff_20Nov2024rod8mm60s_17keV.raw -b True -c true -o xye /beamlines/bl04/projects/cycle2025-II/20250340211-lsimonelli/DATA/IS17_D/17_Da_00051.dat
# IsMon = [6774500, 6775973, 6775371]  IsPos = [-1.4999, -2.4884, -3.4988]
# Wave = 0.4962  CalPath /beamlines/bl04/projects/cycle2025-II/20250340211-lsimonelli/DATA/Align/Si_Pos1_25keV_f00001.cal
# Date = 2025-09-24_07:45:56 Dt = 4.8000  Bin = 0.0060  <imon> = 6775281 +/- 605 (Min/Max) 6774500 / 6775973
# icurr 251.1679  mocoIn 1.7132E-05  mocoOut 0.8038  i15 7.09018e+06  imon 6.77528e+06  i7 6.0000  iEMpd_timer 4.8000  iEMpd_1 3.6441E-08  iEMpd_2 7.9037E-08  iEMpd_3 1.6213E-08  iEMpd_4 4.7939E-08  iEMhp_timer 4.8000  iEMhp_1 4.9077E-06  iEMhp_2 -2.5166E-08  iEMhp_3 -2.3887E-08  iEMhp_4 -2.1995E-08
#      9776
 1.7416  71220.3  266.963
 1.9396  46957.4  217.047
 2.1376  33534.6  183.42
 2.3356  29989.3  173.089
 2.5336  28236.3  168.545
 2.7316  26577.3  163.62
 2.9296  25502.7  160.45
 3.1276  24852  157.925
 3.3256  24412.5  156.19
 3.5236  26129.8  161.393
 3.7216  24033.2  156.036
 3.9196  23488.1  153.48
 4.1176  23311.8  152.671
 4.3156  24573.3  156.913
 4.5136  26961.6  163.331
 4.7116  27956.2  167.467
 4.9096  27455  165.388
 5.1076  26900.9  164.294
 5.3056  27315.9  165.281
 5.5036  27065.2  164.417
 5.7016  27422.5  165.467
 5.8996  27968.9  166.317
 6.0976  28573.2  169.547
 6.2956  29091.9  170.412
 6.4936  29929.7  172.042
 6.6916  30392.5  174.367
 6.8896  31311.6  176.839
 7.0876  32345.9  180.477
 7.2856  32198.4  179.11
 7.4836  32638.4  179.656
 7.6816  33700.7  183.102
 7.8796  34757.6  185.942
 8.0776  36429.9  191.355
 8.2756  38121.5  194.338
 8.4736  38895.8  196.105
 8.6716  38262.1  195.142
 8.8696  38043.5  195.081
 9.0676  37329.5  192.59
 9.2656  36420.8  190.932
 9.4636  35863.7  187.862
 9.6616  35194.2  186.878
 9.8596  33760.9  182.485
 10.0576  31917.4  178.106
 10.2556  30749.9  175.249
 10.4536  29710.6  171.871
 10.6516  28600.1  168.818
 10.8496  27928.9  166.244
 11.0476  27268.5  164.287
 11.2456  26494.9  162.474
 11.4436  26417.7  161.406
 11.6416  27647.8  165.497
 11.8396  25176.6  158.13
 12.0376  25263.5  158.036
 12.2356  24624.3  156.43
 12.4336  24547.3  155.73
 12.6316  24393.7  155.509
 12.8296  24432.6  155.269
 13.0276  25260.7  158.063
 13.2256  25388.1  158.824
 13.4236  25273.1  158.235
 13.6216  24986.9  157.355
 13.8196  25066.6  157.37
 14.0176  24586.1  156.146
 14.2156  23956.8  153.168
 14.4136  23051.5  151.637
 14.6116  22849.5  150.166
 14.8096  21998.3  147.328
 15.0076  20796.8  147.116
 15.2056  20405.9  141.49
 15.4036  19447  138.957
 15.6016  19042.3  136.583
 15.7996  18465.5  134.775
 15.9976  17707.4  134.956
 16.1956  17240.5  131.018
 16.3936  16996.7  129.256
 16.5916  16825.9  129.247
 16.7896  16455.5  127.873
 16.9876  16610.9  129.949
 17.1856  16496.1  127.845
 17.3836  15850.3  125.219
 17.5816  15290.6  123.474
 17.7796  15302.1  123.454
 17.9776  14789.6  122.16
 18.1756  14878.4  121.234
 18.3736  14634.1  120.74
 18.5716  14529.8  120.058
 18.7696  14571.7  119.802
 18.9676  14299.8  118.484
 19.1656  14213.1  118.681
 19.3636  14168.2  118.702
 19.5616  14152.5  118.809
 19.7596  14172.9  118.292
 19.9576  14387.6  119.237
 20.1556  15345.6  123.692
 20.3536  14278.7  118.678
 20.5516  13784.1  117.063
 20.7496  13473.2  115.671
 20.9476  13205  114.264
 21.1456  13483.2  115.798
 21.3436  13349.6  115.172
 21.5416  13202.2  114.535
 21.7396  12924.1  113.169
 21.9376  13032.6  113.405
 22.1356  13072.9  113.705
 22.3336  12894.2  113.218
 22.5316  12950.2  113.553
 22.7296  12934.8  112.84
 22.9276  12854  113.171
 23.1256  13081.4  113.636
 23.3236  13210.2  114.768
 23.5216  12694.7  112.162
 23.7196  12681.2  112.042
 23.9176  12617.2  111.518
 24.1156  12402.1  111.039
 24.3136  12102.9  110.484
 24.5116  12104  110.012
 24.7096  11602.7  107.529
 24.9076  11498.9  107.072
 25.1056  11243.2  106.34
 25.3036  11310.6  106.163
 25.5016  11398.4  106.612
 25.6996  11254.7  105.515
 25.8976  11064.2  105.059
 26.0956  11197.2  105.703
 26.2936  11237.3  105.531
 26.4916  11169.1  105.097
 26.6896  10917.6  104.203
 26.8876  10777.2  103.383
 27.0856  10869.8  103.88
 27.2836  10581.3  102.382
 27.4816  10511.3  101.972
 27.6796  10461.3  102.113
 27.8776  10293.8  101.152
 28.0756  10337.5  101.647
 28.2736  10268.2  100.888
 28.4716  9896.97  99.0987
 28.6696  10170.4  100.303
 28.8676  9888.57  99.2536
 29.0656  9754.02  98.5531
 29.2636  9873.28  98.9455
 29.4616  9749.55  98.5052
 29.6596  9855.18  98.5981
 29.8576  9634.73  98.1767
 30.0556  9749.56  98.6373
 30.2536  9741.11  98.3863
 30.4516  9650.37  97.5834
 30.6496  9564.49  96.8743
 30.8476  9698.87  98.0009
 31.0456  9684.27  97.8866
 31.2436  9532.65  96.3798
 31.4416  9460.24  96.1823
 31.6396  9409.17  95.9763
 31.8376  9461.89  95.7796
 32.0356  9292.78  95.4969
 32.2336  9200.64  94.4054
 32.4316  9127.35  94.4357
 32.6296  9136.5  94.3204
 32.8276  9214.8  94.498
 33.0256  9016.76  93.5541
 33.2236  8891.32  93.044
 33.4216  9103.8  93.8371
 33.6196  9121.02  94.2185
 33.8176  8998.23  93.7475
 34.0156  8962.88  93.1777
 34.2136  8828.8  92.5197
 34.4116  8742.35  92.2172
 34.6096  8754.6  92.1608
 34.8076  8579.78  91.6439
 35.0056  8695.56  91.9453
 35.2036  8734.5  92.3674
 35.4016  8719.18  92.2061
 35.5996  8512.86  91.1429
 35.7976  8472.73  91.2097
 35.9956  8624.23  91.6613
 36.1936  8518.72  90.9628
 36.3916  8442.03  90.7296
 36.5896  8398.59  91.4709
 36.7876  8447.94  91.1412
 36.9856  8257.02  90.1333
 37.1836  8432.01  90.1731
 37.3816  8419.13  90.4737
 37.5796  8361.12  91.9032
 37.7776  8131.35  89.0098
 37.9756  8256.29  89.572
 38.1736  8318.23  90.1042
 38.3716  8172.09  89.5897
 38.5696  8231.4  90.2929
 38.7676  7828.66  87.5655
 38.9656  8122.78  88.8259
 39.1636  7987.18  88.3471
 39.3616  8112.07  88.9635
 39.5596  8007.01  89.2393
 39.7576  7997.14  88.5529
 39.9556  8088.19  88.696
 40.1536  8113.4  89.04
 40.3516  8194.9  89.4962
 40.5496  8092.11  89.1922
 40.7476  8185.98  89.7168
 40.9456  8229.15  89.6981
 41.1436  8180.8  89.1529
 41.3416  8071.16  88.8898
 41.5396  7986.24  88.2277
 41.7376  8187.7  89.6019
 41.9356  8040.12  88.6516
 42.1336  8014.74  88.6605
 42.3316  7958.24  88.5444
 42.5296  8066.09  88.652
 42.7276  7966.82  88.3497
 42.9256  7954.75  88.1497
 43.1236  7813.97  87.4755
 43.3216  7906.92  87.7411
 43.5196  7831.67  87.3888
 43.7176  7808.68  87.6529
 43.9156  7690.89  86.9018
 44.1136  7737.24  86.712
 44.3116  7684.13  86.4264
 44.5096  7611.32  86.3259
 44.7076  7753.22  87.0569
 44.9056  7600.24  86.0614
 45.1036  7548.91  85.4
 45.3016  7511.43  85.6864
 45.4996  7443.57  85.2391
 45.6976  7470.94  85.5675
 45.8956  7436.99  85.1919
 46.0936  7581.5  86.0198
 46.2916  7456.82  85.2894
 46.4896  7427.21  85.1528
 46.6876  7289.28  85.0678
 46.8856  7188.66  83.7396
 47.0836  7286.48  84.5591
 47.2816  7174.49  83.7877
 47.4796  7226.05  84.1912
 47.6776  7093.13  84.3425
 47.8756  7242.17  84.407
 48.0736  7231.34  84.7949
 48.2716  7029.83  83.4295
 48.4696  7239.34  84.2572
 48.6676  7039.91  83.6691
 48.8656  7075.87  83.6037
 49.0636  7118.7  83.8076
 49.2616  6934.25  82.7518
 49.4596  6923.71  82.2544
 49.6576  7018.26  83.0358
 49.8556  6906.59  82.3997
 50.0536  6980.37  83.2842
 50.2516  6926.03  83.096
 50.4496  6930.56  82.7756
 50.6476  6843.32  81.935
 50.8456  6888.19  82.2806
 51.0436  6629.19  81.1666
 51.2416  6748.17  81.5639
 51.4396  6602.66  81.0718
 51.6376  6630.32  81.0657
 51.8356  6581.79  80.4039
 52.0336  6635.56  81.2427
 52.2316  6558.14  81.1213
 52.4296  6548.47  80.7562
 52.6276  6606.63  81.2181
 52.8256  6567.92  80.551
 53.0236  6533.74  80.9776
 53.2216  6443.21  80.4473
 53.4196  6389.71  80.038
 53.6176  6427.63  80.7527
 53.8156  6414.66  80.3435
 54.0136  6415.38  80.5278
 54.2116  6412.67  80.1641
 54.4096  6383.73  80.0336
 54.6076  6274.6  79.6962
 54.8056  6281.31  79.5271
 55.0036  6362.41  80.4346
 55.2016  6314.33  79.6737
 55.3996  6274.99  79.3951
 55.5976  6342.6  80.0131
 55.7956  6324.81  79.714
 55.9936  6274.82  79.5365
 56.1916  6390.48  80.2869
 56.3896  6290.22  79.6406
 56.5876  6166.73  79.4046
 56.7856  6235.03  79.3217
 56.9836  6123.61  78.3967
 57.1816  6365.7  80.3178
 57.3796  6184.77  78.9661
 57.5776  6246.71  79.2876
 57.7756  6163.81  79.3983
 57.9736  6194.39  79.262
 58.1716  6121.32  79.0369
 58.3696  6190.24  79.226
 58.5676  6322.21  79.5365
 58.7656  6317.53  80.192
 58.9636  6354.81  80.4651
 59.1616  6248.53  79.9148
 59.3596  6258.18  79.232
 59.5576  6320.87  79.6858
 59.7556  6144.22  78.9863
 59.9536  6443.49  80.7826
 60.1516  6208.27  80.155
 60.1996  0.0000000E+00  0.0000000E+00