File: docs/examples/opeando_xrd/IS17_D/Data/IS17_D/17_Db_f00050.xye
# /beamlines/bl04/projects/cycle2025-II/20250340211-lsimonelli/DATA/IS17_D/17_Db_f00050.xye : mythproc.py merge -s 0.006 -l 0.5 -f /beamlines/bl04/inhouse/ff/FlatField/ff_20Nov2024rod8mm60s_17keV.raw -b True -c true -o xye /beamlines/bl04/projects/cycle2025-II/20250340211-lsimonelli/DATA/IS17_D/17_Db_00050.dat
# IsMon = [6795114, 6791747, 6795671]  IsPos = [-1.4999, -2.4885, -3.4986]
# Wave = 0.4962  CalPath /beamlines/bl04/projects/cycle2025-II/20250340211-lsimonelli/DATA/Align/Si_Pos1_25keV_f00001.cal
# Date = 2025-09-24_07:37:38 Dt = 4.8000  Bin = 0.0060  <imon> = 6794177 +/- 1733 (Min/Max) 6791747 / 6795671
# icurr 253.1621  mocoIn 1.7270E-05  mocoOut 0.8105  i15 7.1118e+06  imon 6.79418e+06  i7 4.6667  iEMpd_timer 4.8000  iEMpd_1 3.4714E-08  iEMpd_2 7.9394E-08  iEMpd_3 1.8114E-08  iEMpd_4 4.7909E-08  iEMhp_timer 4.8000  iEMhp_1 4.9456E-06  iEMhp_2 -2.4534E-08  iEMhp_3 -2.3307E-08  iEMhp_4 -2.1451E-08
#      9776
 1.7416  72279.5  268.907
 1.9396  49924.6  223.777
 2.1376  36765.5  192.029
 2.3356  33078.7  181.763
 2.5336  30957.5  176.458
 2.7316  28513.2  169.491
 2.9296  26998.7  165.081
 3.1276  26682.9  163.642
 3.3256  25966.1  161.091
 3.5236  27500.9  165.729
 3.7216  25083.7  159.4
 3.9196  24609.1  157.082
 4.1176  24193.3  155.523
 4.3156  25221  158.965
 4.5136  27558.3  165.134
 4.7116  28591.6  169.352
 4.9096  27782.3  166.367
 5.1076  27463.8  165.994
 5.3056  27755.7  166.484
 5.5036  27138.6  164.653
 5.7016  27647.1  166.137
 5.8996  28174.7  166.937
 6.0976  29088.4  171.053
 6.2956  29270.2  170.933
 6.4936  30114.1  172.562
 6.6916  30442.8  174.499
 6.8896  31163.9  176.386
 7.0876  32360.5  180.509
 7.2856  32265.1  179.285
 7.4836  32673.5  179.748
 7.6816  33357.7  182.142
 7.8796  34515.4  185.301
 8.0776  36047.8  190.362
 8.2756  37555.1  192.892
 8.4736  37933.7  193.677
 8.6716  37405.6  192.964
 8.8696  37943.4  194.819
 9.0676  37562.7  193.15
 9.2656  36407.9  190.867
 9.4636  35231.2  186.204
 9.6616  34694.9  185.52
 9.8596  33864.3  182.758
 10.0576  31549.7  177.081
 10.2556  30699.4  175.118
 10.4536  29697  171.834
 10.6516  28766.8  169.325
 10.8496  27671.2  165.472
 11.0476  26768.8  162.728
 11.2456  26028  161.045
 11.4436  26227.7  160.828
 11.6416  27615.5  165.375
 11.8396  25247.1  158.332
 12.0376  24654.3  156.1
 12.2356  24282.4  155.373
 12.4336  24290.4  154.912
 12.6316  24123.4  154.64
 12.8296  24180.7  154.435
 13.0276  24704.9  156.315
 13.2256  25113.8  157.971
 13.4236  24902.7  157.07
 13.6216  25027.4  157.46
 13.8196  27222.4  163.708
 14.0176  24118.8  154.657
 14.2156  23796.3  152.637
 14.4136  22536.9  149.935
 14.6116  22413.5  148.717
 14.8096  21763.8  146.518
 15.0076  20682.2  146.759
 15.2056  19783.5  139.323
 15.4036  18746.4  136.451
 15.6016  18382.9  134.208
 15.7996  17957.8  132.911
 15.9976  17549  134.299
 16.1956  17286.5  131.148
 16.3936  16829.9  128.577
 16.5916  16665.8  128.597
 16.7896  16672  128.687
 16.9876  16496.2  129.487
 17.1856  16257.7  126.929
 17.3836  16116.3  126.278
 17.5816  15478.7  124.236
 17.7796  15284.3  123.38
 17.9776  14810.6  122.217
 18.1756  14875.8  121.238
 18.3736  14473.9  120.084
 18.5716  14388.8  119.469
 18.7696  14387.7  119.031
 18.9676  14235.1  118.184
 19.1656  13970.5  117.679
 19.3636  13950.4  117.794
 19.5616  13828.8  117.444
 19.7596  14141.6  118.157
 19.9576  14217.9  118.524
 20.1556  15041.2  122.447
 20.3536  14205.7  118.379
 20.5516  13624  116.369
 20.7496  13377.9  115.25
 20.9476  13322.3  114.767
 21.1456  13234  114.719
 21.3436  13006.9  113.674
 21.5416  12970  113.531
 21.7396  12949  113.281
 21.9376  12775.6  112.291
 22.1356  12770.8  112.276
 22.3336  12564.4  111.752
 22.5316  12582  111.939
 22.7296  12508  110.977
 22.9276  12359.1  110.978
 23.1256  12636.7  111.692
 23.3236  12962.3  113.69
 23.5216  12906.6  113.075
 23.7196  12570.4  111.549
 23.9176  12746.5  112.074
 24.1156  12388.8  110.938
 24.3136  12133.9  110.633
 24.5116  12217.2  110.522
 24.7096  11665  107.806
 24.9076  11684.4  107.928
 25.1056  11409.8  106.86
 25.3036  11261.3  105.931
 25.5016  11154.9  105.464
 25.6996  11275.4  105.608
 25.8976  11146.3  105.431
 26.0956  11009.7  104.804
 26.2936  10935.8  104.114
 26.4916  11291.7  105.646
 26.6896  11084.3  104.982
 26.8876  10848.6  103.707
 27.0856  10698.9  103.024
 27.2836  10439.1  101.838
 27.4816  10447  101.666
 27.6796  10356.2  101.584
 27.8776  10624.3  102.741
 28.0756  10227.6  101.101
 28.2736  10126.4  100.181
 28.4716  10033.7  99.7804
 28.6696  9932.05  99.1053
 28.8676  9953.13  99.5753
 29.0656  9858.57  99.0771
 29.2636  9927.8  99.1348
 29.4616  9435.79  96.9132
 29.6596  9602.7  97.3322
 29.8576  9300.29  96.4655
 30.0556  9310.54  96.3915
 30.2536  9532.2  97.3309
 30.4516  9617.42  97.3878
 30.6496  9640.69  97.2354
 30.8476  9576.33  97.3655
 31.0456  9674.25  97.8173
 31.2436  9640.72  96.9074
 31.4416  9401.28  95.8933
 31.6396  9408.51  95.972
 31.8376  9585.95  96.3796
 32.0356  9446.27  96.26
 32.2336  9411.03  95.4774
 32.4316  9004.13  93.7971
 32.6296  9105.91  94.0872
 32.8276  9066.63  93.7427
 33.0256  9030.72  93.623
 33.2236  9022.47  93.7218
 33.4216  8944.79  93
 33.6196  9018.1  93.6774
 33.8176  9031.44  93.9229
 34.0156  8862.53  92.6587
 34.2136  8932.14  93.0449
 34.4116  8696.77  91.9827
 34.6096  8748.21  92.1289
 34.8076  8651.21  92.035
 35.0056  8584.19  91.3461
 35.2036  8815.11  92.7915
 35.4016  8644.63  91.8017
 35.5996  8516.42  91.1607
 35.7976  8500.36  91.3493
 35.9956  8620.05  91.6281
 36.1936  8653.36  91.6524
 36.3916  8450.8  90.7813
 36.5896  8416.8  92.0574
 36.7876  8136.63  89.4488
 36.9856  8131.8  89.4483
 37.1836  8153.27  88.6732
 37.3816  8071.13  88.5868
 37.5796  8222.02  91.1473
 37.7776  8293.03  89.8831
 37.9756  8273.53  89.656
 38.1736  8226.66  89.5939
 38.3716  8159.6  89.4961
 38.5696  8082.27  89.4531
 38.7676  8089.74  89.0113
 38.9656  8059.83  88.4833
 39.1636  8148.13  89.206
 39.3616  8117.11  89.0034
 39.5596  7927  88.7819
 39.7576  7961.57  88.3642
 39.9556  7946.12  87.918
 40.1536  8125.97  89.0995
 40.3516  8029.77  88.6624
 40.5496  8120.05  89.1264
 40.7476  8103.92  89.2473
 40.9456  8163.83  89.3377
 41.1436  8100.86  88.712
 41.3416  7969.58  88.3302
 41.5396  7927.35  87.8922
 41.7376  8050.51  88.8474
 41.9356  7930.25  88.0391
 42.1336  8216.92  89.7555
 42.3316  7899.73  88.2177
 42.5296  7920.96  87.8445
 42.7276  7984.89  88.4426
 42.9256  7951.01  88.1267
 43.1236  7859.2  87.7181
 43.3216  7928.93  87.9636
 43.5196  7799.95  87.1997
 43.7176  7915.15  88.2444
 43.9156  7651.17  86.6826
 44.1136  7730.48  86.6794
 44.3116  7659.71  86.2906
 44.5096  7688.56  86.7697
 44.7076  7682.01  86.6514
 44.9056  7900.51  87.7388
 45.1036  7816.57  86.8891
 45.3016  7840.42  87.5288
 45.4996  7727.74  86.8387
 45.6976  7522.36  85.8573
 45.8956  7636.75  86.3289
 46.0936  7691.9  86.6398
 46.2916  7666.35  86.4786
 46.4896  7705.79  86.7218
 46.6876  7568.53  86.677
 46.8856  7469.86  85.4772
 47.0836  7570.03  86.186
 47.2816  7464.91  85.4705
 47.4796  7615.4  86.4261
 47.6776  7470.83  86.5664
 47.8756  7457.07  85.6503
 48.0736  7555.89  86.6612
 48.2716  7441.25  85.8389
 48.4696  7550.21  86.0399
 48.6676  7496.04  86.3397
 48.8656  7554.51  86.3842
 49.0636  7563.29  86.3815
 49.2616  7448.76  85.772
 49.4596  7472.32  85.4497
 49.6576  7378.36  85.1428
 49.8556  7330.07  84.8881
 50.0536  7434.75  85.9426
 50.2516  7377.83  85.7346
 50.4496  7381.65  85.4319
 50.6476  7344.18  84.8764
 50.8456  7374.09  85.1324
 51.0436  7160.86  84.3608
 51.2416  7034.85  83.2842
 51.4396  7057.47  83.8294
 51.6376  7090.65  83.8438
 51.8356  7079.42  83.3949
 52.0336  7073.49  83.8663
 52.2316  7160.36  84.7537
 52.4296  7092.53  84.0411
 52.6276  6893.96  82.9686
 52.8256  7249.5  84.6255
 53.0236  7150.37  84.7163
 53.2216  7160.29  84.8105
 53.4196  7013.76  83.8443
 53.6176  7070.6  84.6947
 53.8156  6998.23  83.9253
 54.0136  6805.91  82.9335
 54.2116  7010.71  83.7809
 54.4096  6768.68  82.4067
 54.6076  6597.79  81.704
 54.8056  6643.86  81.7599
 55.0036  6667.58  82.32
 55.2016  6791.65  82.5939
 55.3996  6476.9  80.6435
 55.5976  6628.89  81.7845
 55.7956  6511.27  80.8594
 55.9936  6687.35  82.0733
 56.1916  6461.83  80.7074
 56.3896  6374.53  80.1589
 56.5876  6444.56  81.1464
 56.7856  6432.72  80.5661
 56.9836  6525.24  80.8958
 57.1816  6523.76  81.2693
 57.3796  6244.15  79.3041
 57.5776  6416.05  80.3082
 57.7756  6278.02  80.1068
 57.9736  6272  79.7427
 58.1716  6233.23  79.7551
 58.3696  6110.05  78.7274
 58.5676  6154.67  78.4651
 58.7656  6120.63  78.9413
 58.9636  6007.2  78.228
 59.1616  6113.83  79.06
 59.3596  6060.7  77.9635
 59.5576  6270.8  79.3614
 59.7556  6034.64  78.2707
 59.9536  6086.78  78.5066
 60.1516  6042.76  79.0712
 60.1996  0.0000000E+00  0.0000000E+00