File: docs/examples/opeando_xrd/IS17_D/Data/IS17_D/17_Db_f00074.xye
# /beamlines/bl04/projects/cycle2025-II/20250340211-lsimonelli/DATA/IS17_D/17_Db_f00074.xye : mythproc.py merge -s 0.006 -l 0.5 -f /beamlines/bl04/inhouse/ff/FlatField/ff_20Nov2024rod8mm60s_17keV.raw -b True -c true -o xye /beamlines/bl04/projects/cycle2025-II/20250340211-lsimonelli/DATA/IS17_D/17_Db_00074.dat
# IsMon = [6793014, 6784362, 6786614]  IsPos = [-1.4999, -2.4885, -3.4988]
# Wave = 0.4962  CalPath /beamlines/bl04/projects/cycle2025-II/20250340211-lsimonelli/DATA/Align/Si_Pos1_25keV_f00001.cal
# Date = 2025-09-24_14:17:26 Dt = 4.8000  Bin = 0.0060  <imon> = 6787997 +/- 3665 (Min/Max) 6784362 / 6793014
# icurr 253.2481  mocoIn 1.7263E-05  mocoOut 0.8106  i15 7.11363e+06  imon 6.788e+06  i7 6.0000  iEMpd_timer 4.8000  iEMpd_1 3.3766E-08  iEMpd_2 7.7817E-08  iEMpd_3 1.5337E-08  iEMpd_4 4.6994E-08  iEMhp_timer 4.8000  iEMhp_1 4.9452E-06  iEMhp_2 -2.4643E-08  iEMhp_3 -2.5089E-08  iEMhp_4 -2.0444E-08
#      9776
 1.7416  68992.4  262.642
 1.9396  47602.2  218.438
 2.1376  34608.2  186.254
 2.3356  30999.1  175.904
 2.5336  30587.3  175.347
 2.7316  26605.4  163.703
 2.9296  25311.2  159.835
 3.1276  24730.7  157.509
 3.3256  24014.2  154.908
 3.5236  25760.4  160.378
 3.7216  23377  153.888
 3.9196  23380  153.104
 4.1176  22875.2  151.218
 4.3156  23846.2  154.581
 4.5136  26939.3  163.273
 4.7116  27491.2  166.063
 4.9096  26869.6  163.613
 5.1076  26288.9  162.388
 5.3056  26314.1  162.202
 5.5036  26049.1  161.385
 5.7016  26517.3  162.71
 5.8996  26935.6  163.225
 6.0976  27803.7  167.205
 6.2956  27955.1  167.054
 6.4936  28908.3  169.066
 6.6916  29182  170.841
 6.8896  30296.6  173.923
 7.0876  30894.2  176.375
 7.2856  30900  175.445
 7.4836  31682.5  176.994
 7.6816  32247.4  179.086
 7.8796  33222.3  181.815
 8.0776  37151.2  193.283
 8.2756  37463.7  192.693
 8.4736  37310.8  192.109
 8.6716  36442.3  190.492
 8.8696  37943.6  194.811
 9.0676  37247.3  192.333
 9.2656  35407.8  188.224
 9.4636  34382.6  183.954
 9.6616  33370  181.951
 9.8596  32733.2  179.649
 10.0576  30846.4  175.088
 10.2556  30370.8  174.161
 10.4536  34320.8  184.693
 10.6516  34827.7  186.298
 10.8496  27611.7  165.284
 11.0476  27270.4  164.253
 11.2456  30422.9  174.115
 11.4436  26837.8  162.687
 11.6416  25914  160.192
 11.8396  24863.9  157.116
 12.0376  24061.7  154.212
 12.2356  25815.5  160.19
 12.4336  24783.5  156.479
 12.6316  23698.4  153.255
 12.8296  24025.8  153.947
 13.0276  24222.3  154.795
 13.2256  24163.8  154.945
 13.4236  24298  155.158
 13.6216  24531  155.886
 13.8196  27522.8  164.583
 14.0176  23698.8  153.313
 14.2156  23482.6  151.635
 14.4136  21991.8  148.114
 14.6116  21508.7  145.687
 14.8096  20883  143.529
 15.0076  20315.6  145.452
 15.2056  19179.7  137.202
 15.4036  18296.5  134.823
 15.6016  17917.6  132.518
 15.7996  17501.1  131.24
 15.9976  17234.2  133.099
 16.1956  16849.2  129.478
 16.3936  16688.2  128.038
 16.5916  16511.7  128.002
 16.7896  16402.8  127.645
 16.9876  16134.9  128.055
 17.1856  16064.5  126.168
 17.3836  15256.4  122.85
 17.5816  15377  123.815
 17.7796  15157  122.857
 17.9776  15090.5  123.37
 18.1756  16337.7  127.054
 18.3736  16112.1  126.681
 18.5716  14694  120.73
 18.7696  14488.3  119.45
 18.9676  14440.5  119.036
 19.1656  13917.6  117.463
 19.3636  13833.3  117.302
 19.5616  13950.9  117.956
 19.7596  14115.3  118.038
 19.9576  14611.4  120.148
 20.1556  13447.6  115.787
 20.3536  13427.5  115.083
 20.5516  13183.7  114.472
 20.7496  13043.5  113.802
 20.9476  13539.6  115.691
 21.1456  13461.7  115.708
 21.3436  12877.3  113.115
 21.5416  12919.5  113.309
 21.7396  12522.8  111.401
 21.9376  12577.2  111.419
 22.1356  12899.8  112.966
 22.3336  12359.4  110.854
 22.5316  12525.1  111.701
 22.7296  12227.1  109.745
 22.9276  12177.4  110.178
 23.1256  12734.5  112.145
 23.3236  12413  111.25
 23.5216  12649.8  111.937
 23.7196  12345.8  110.54
 23.9176  12507.5  111.001
 24.1156  12246.4  110.3
 24.3136  11942.6  109.745
 24.5116  12192.4  110.401
 24.7096  11875.6  108.767
 24.9076  11706.6  108.006
 25.1056  11465.4  107.105
 25.3036  11020.6  104.799
 25.5016  11178.1  105.576
 25.6996  11122.7  104.894
 25.8976  11372.2  106.489
 26.0956  11080.3  105.139
 26.2936  10968.5  104.274
 26.4916  11140.3  104.937
 26.6896  10814.1  103.7
 26.8876  10610.2  102.561
 27.0856  10621.4  102.651
 27.2836  10321.7  101.119
 27.4816  10533.5  102.088
 27.6796  10376.3  101.682
 27.8776  10913.2  104.129
 28.0756  10123.1  100.589
 28.2736  10316.3  101.119
 28.4716  10001  99.6087
 28.6696  10135.1  100.127
 28.8676  9867.04  99.1467
 29.0656  9736.93  98.4659
 29.2636  9856.56  98.7673
 29.4616  9394.92  96.7179
 29.6596  9494.52  96.7976
 29.8576  9251.85  96.2249
 30.0556  9583.69  97.8089
 30.2536  9388.45  96.6094
 30.4516  9662.49  97.6121
 30.6496  9680.29  97.4366
 30.8476  9340.25  96.1445
 31.0456  9604.82  97.4515
 31.2436  9437.4  95.8625
 31.4416  9214.15  94.9233
 31.6396  9839.92  98.1315
 31.8376  9439.73  95.6336
 32.0356  9287  95.449
 32.2336  9306.39  94.9264
 32.4316  9083.88  94.2147
 32.6296  8953.31  93.2976
 32.8276  8991.73  93.3547
 33.0256  8910.76  92.9846
 33.2236  8957.95  93.3776
 33.4216  8822.28  92.3697
 33.6196  8820.49  92.6524
 33.8176  8845.49  92.9467
 34.0156  8702.35  91.8211
 34.2136  8734.91  92.0089
 34.4116  8532.5  91.1165
 34.6096  8675.27  91.7439
 34.8076  8450.35  90.9602
 35.0056  8562.77  91.2317
 35.2036  8724.67  92.3071
 35.4016  8582.61  91.4817
 35.5996  8494.69  91.0397
 35.7976  8452.21  91.0833
 35.9956  8677.8  91.9432
 36.1936  8533.22  91.0187
 36.3916  8329.8  90.1237
 36.5896  8500.41  92.507
 36.7876  8222.83  89.9375
 36.9856  7922.43  88.3007
 37.1836  8019.6  87.9589
 37.3816  8041.14  88.4357
 37.5796  8240.69  91.2392
 37.7776  8147.07  89.076
 37.9756  8199.14  89.2429
 38.1736  8311.95  90.0447
 38.3716  8218.17  89.8189
 38.5696  7933.18  88.6339
 38.7676  7970.56  88.3482
 38.9656  8074.04  88.5512
 39.1636  8022.16  88.507
 39.3616  8001.48  88.3642
 39.5596  7889.8  88.5827
 39.7576  7927.6  88.1773
 39.9556  7974.77  88.076
 40.1536  8073.97  88.8125
 40.3516  8002.28  88.4455
 40.5496  8083.29  88.933
 40.7476  8059.17  89.0089
 40.9456  8005.97  88.4652
 41.1436  8102.47  88.7156
 41.3416  7891.32  87.9016
 41.5396  7877.91  87.6241
 41.7376  7861.4  87.7994
 41.9356  8022.77  88.5462
 42.1336  8011.67  88.622
 42.3316  7828.39  87.8229
 42.5296  7855.03  87.4822
 42.7276  7966.08  88.338
 42.9256  7903.24  87.8652
 43.1236  7759.71  87.1599
 43.3216  7873.15  87.65
 43.5196  7706.22  86.6781
 43.7176  7776.52  87.4677
 43.9156  7587.86  86.3366
 44.1136  7577  85.8279
 44.3116  7677.27  86.3967
 44.5096  7574.81  86.1385
 44.7076  7576.54  86.0776
 44.9056  7736.58  86.8195
 45.1036  7627.4  85.8286
 45.3016  7531.83  85.7841
 45.4996  7604.59  86.1423
 45.6976  7479.44  85.6149
 45.8956  7635.09  86.3086
 46.0936  7810.81  87.2961
 46.2916  7700.46  86.6604
 46.4896  7587.49  86.0583
 46.6876  7547.21  86.5528
 46.8856  7448.33  85.2429
 47.0836  7428.18  85.3691
 47.2816  7365.47  84.8975
 47.4796  7369.21  85.0332
 47.6776  7370.27  85.9932
 47.8756  7442.29  85.5597
 48.0736  7447.12  86.0499
 48.2716  7326.16  85.1786
 48.4696  7493.41  85.725
 48.6676  7420.28  85.9037
 48.8656  7560.88  86.4294
 49.0636  7656.12  86.9063
 49.2616  7342.81  85.1669
 49.4596  7353.74  84.7673
 49.6576  7356.6  85.0237
 49.8556  7318  84.8171
 50.0536  7266.22  84.9695
 50.2516  7332.83  85.4696
 50.4496  7327.21  85.1121
 50.6476  7375.99  85.06
 50.8456  7336.64  84.9175
 51.0436  7158.57  84.3635
 51.2416  7150.63  83.979
 51.4396  6942.53  83.1565
 51.6376  7005.66  83.3551
 51.8356  7076.04  83.387
 52.0336  6984.49  83.3418
 52.2316  7011.98  83.8591
 52.4296  6911.25  82.9643
 52.6276  6932.75  83.1866
 52.8256  7149.98  84.0391
 53.0236  7074.3  84.2375
 53.2216  6947.32  83.5314
 53.4196  7000.48  83.7404
 53.6176  6895.04  83.6307
 53.8156  6971.08  83.7445
 54.0136  6691.39  82.2337
 54.2116  6831.04  82.7091
 54.4096  6650.48  81.6879
 54.6076  6612.68  81.7972
 54.8056  6505.59  80.9168
 55.0036  6483.58  81.184
 55.2016  6663.55  81.7917
 55.3996  6402.33  80.1898
 55.5976  6533.7  81.1875
 55.7956  6466.22  80.5652
 55.9936  6579.8  81.388
 56.1916  6409.01  80.3786
 56.3896  6347.03  79.9814
 56.5876  6294.34  80.2016
 56.7856  6329.24  79.9152
 56.9836  6457.56  80.4818
 57.1816  6514.22  81.2027
 57.3796  6289.66  79.6234
 57.5776  6363.98  79.9669
 57.7756  6159.78  79.3549
 57.9736  6196.04  79.2452
 58.1716  6149.73  79.2161
 58.3696  6059.05  78.407
 58.5676  6055.49  77.845
 58.7656  5998.8  78.1633
 58.9636  6103.56  78.8682
 59.1616  5959.12  78.0658
 59.3596  6041.84  77.8584
 59.5576  6004.64  77.6753
 59.7556  6035.23  78.2911
 59.9536  6069.61  78.4124
 60.1516  6041.45  79.0794
 60.1996  0.0000000E+00  0.0000000E+00