File: docs/examples/opeando_xrd/IS17_D/Data/IS17_D/17_Db_f00018.xye
# /beamlines/bl04/projects/cycle2025-II/20250340211-lsimonelli/DATA/IS17_D/17_Db_f00018.xye : mythproc.py merge -s 0.006 -l 0.5 -f /beamlines/bl04/inhouse/ff/FlatField/ff_20Nov2024rod8mm60s_17keV.raw -b True -c true -o xye /beamlines/bl04/projects/cycle2025-II/20250340211-lsimonelli/DATA/IS17_D/17_Db_00018.dat
# IsMon = [6770849, 6772740, 6770498]  IsPos = [-1.5000, -2.4886, -3.4985]
# Wave = 0.4962  CalPath /beamlines/bl04/projects/cycle2025-II/20250340211-lsimonelli/DATA/Align/Si_Pos1_25keV_f00001.cal
# Date = 2025-09-23_22:43:44 Dt = 4.8000  Bin = 0.0060  <imon> = 6771362 +/- 985 (Min/Max) 6770498 / 6772740
# icurr 251.7406  mocoIn 1.7186E-05  mocoOut 0.8061  i15 7.08873e+06  imon 6.77136e+06  i7 5.3333  iEMpd_timer 4.8000  iEMpd_1 3.6003E-08  iEMpd_2 7.8565E-08  iEMpd_3 1.6642E-08  iEMpd_4 4.6710E-08  iEMhp_timer 4.8000  iEMhp_1 4.9209E-06  iEMhp_2 -2.5602E-08  iEMhp_3 -2.3391E-08  iEMhp_4 -2.0482E-08
#      9776
 1.7416  68882.7  262.54
 1.9396  46890.3  216.887
 2.1376  34272.1  185.423
 2.3356  30649.9  174.982
 2.5336  30696.7  175.732
 2.7316  26208.6  162.483
 2.9296  24719.7  157.95
 3.1276  24407.6  156.499
 3.3256  23542.2  153.366
 3.5236  25146.6  158.455
 3.7216  23087.9  152.924
 3.9196  23015  151.896
 4.1176  22498.4  149.977
 4.3156  23364.7  153.008
 4.5136  26438.1  161.734
 4.7116  27070.8  164.787
 4.9096  26292.3  161.845
 5.1076  25983.3  161.464
 5.3056  25961.5  161.199
 5.5036  25424  159.372
 5.7016  25833.1  160.595
 5.8996  26214.6  161.028
 6.0976  27339.5  165.831
 6.2956  27319.6  165.131
 6.4936  28116.5  166.729
 6.6916  28414  168.585
 6.8896  29504.2  171.634
 7.0876  30584.7  175.404
 7.2856  30085.4  173.12
 7.4836  30754.2  174.383
 7.6816  31410.3  176.74
 7.8796  32134.6  178.79
 8.0776  35597  189.157
 8.2756  35998  188.852
 8.4736  35879.7  188.352
 8.6716  35060.5  186.798
 8.8696  36871.6  192.074
 9.0676  35950.4  188.989
 9.2656  33920.9  184.251
 9.4636  33056.1  180.448
 9.6616  32071.4  178.395
 9.8596  31544.7  176.368
 10.0576  30432.1  173.522
 10.2556  29041.9  170.295
 10.4536  31880  178.02
 10.6516  33152  181.762
 10.8496  26218  161.071
 11.0476  25850.7  159.907
 11.2456  28755.3  169.751
 11.4436  25166.3  157.537
 11.6416  24753.3  156.572
 11.8396  23684.2  153.355
 12.0376  23059  150.96
 12.2356  24521  156.12
 12.4336  23549.9  152.53
 12.6316  22567.7  149.567
 12.8296  23013.8  150.665
 13.0276  23301.8  151.81
 13.2256  23273.9  152.075
 13.4236  23303.1  151.94
 13.6216  23765.9  153.443
 13.8196  26228.8  160.446
 14.0176  22711.2  150.126
 14.2156  22462.4  148.297
 14.4136  21113  145.119
 14.6116  21024.6  144.036
 14.8096  20080.9  140.739
 15.0076  19406.5  142.164
 15.2056  18480.7  134.648
 15.4036  17699.1  132.569
 15.6016  17381.2  130.492
 15.7996  17219.7  129.685
 15.9976  16576.9  130.524
 16.1956  16321  127.439
 16.3936  15795.1  124.592
 16.5916  15733.8  124.972
 16.7896  15692.4  124.865
 16.9876  15697.5  126.299
 17.1856  15508.5  123.829
 17.3836  14979.8  121.734
 17.5816  14548.8  120.439
 17.7796  14715.4  121.056
 17.9776  14549.8  121.146
 18.1756  15362.6  123.121
 18.3736  15370  123.723
 18.5716  13946  117.617
 18.7696  13845.2  116.767
 18.9676  13654.5  115.767
 19.1656  13277  114.897
 19.3636  13360.7  115.316
 19.5616  13288.8  115.128
 19.7596  13494.2  115.432
 19.9576  13836.3  116.919
 20.1556  13187  114.659
 20.3536  13022.6  113.341
 20.5516  12747.3  112.565
 20.7496  12566.8  111.62
 20.9476  12959.4  113.194
 21.1456  12840.3  112.998
 21.3436  12377.9  110.898
 21.5416  12242  110.299
 21.7396  12140.2  109.683
 21.9376  12199.3  109.731
 22.1356  12478.7  111.128
 22.3336  12027.1  109.33
 22.5316  11961.5  109.14
 22.7296  11779.3  107.683
 22.9276  11627.6  107.64
 23.1256  12195.4  109.729
 23.3236  12126.6  109.978
 23.5216  12084.4  109.431
 23.7196  12097.9  109.656
 23.9176  12150.2  109.433
 24.1156  11798.5  108.291
 24.3136  11706.8  108.649
 24.5116  11722.7  108.252
 24.7096  11374.8  106.457
 24.9076  11306.8  106.164
 25.1056  10972.5  104.77
 25.3036  10747.1  103.561
 25.5016  10793.7  103.742
 25.6996  10656  102.664
 25.8976  11044  104.953
 26.0956  10739  103.505
 26.2936  10497.8  102
 26.4916  10774.8  103.2
 26.6896  10459.6  101.975
 26.8876  10241.3  100.76
 27.0856  10270.4  100.926
 27.2836  9977.87  99.5729
 27.4816  10080.1  99.8611
 27.6796  9887.72  99.2618
 27.8776  10383.9  101.581
 28.0756  9815.97  99.052
 28.2736  9817.73  98.6467
 28.4716  9586.82  97.5314
 28.6696  9613.2  97.5087
 28.8676  9468.65  97.1202
 29.0656  9424.2  96.8651
 29.2636  9454.46  96.7444
 29.4616  8967.15  94.4712
 29.6596  9047.7  94.4713
 29.8576  8936.2  94.5533
 30.0556  9157.39  95.5934
 30.2536  8973.01  94.4288
 30.4516  9449.78  96.538
 30.6496  9324.37  95.6381
 30.8476  9052.1  94.6721
 31.0456  9178.12  95.2876
 31.2436  9112.37  94.2195
 31.4416  9026.96  93.955
 31.6396  9435.05  96.0968
 31.8376  9190.25  94.3635
 32.0356  9036.97  94.1477
 32.2336  8841.97  92.5445
 32.4316  8679.15  92.0837
 32.6296  8639.73  91.6452
 32.8276  8584.7  91.2173
 33.0256  8663.83  91.6883
 33.2236  8683.14  91.9436
 33.4216  8535.29  90.8861
 33.6196  8530.97  91.1429
 33.8176  8486.07  91.03
 34.0156  8413.99  90.2829
 34.2136  8437.66  90.4277
 34.4116  8262.11  89.651
 34.6096  8277.49  89.614
 34.8076  8192.69  89.5625
 35.0056  8185.61  89.1937
 35.2036  8492.97  91.0839
 35.4016  8181.42  89.3112
 35.5996  8135.69  89.0975
 35.7976  8072.99  89.0134
 35.9956  8406.22  90.4835
 36.1936  8224.77  89.3679
 36.3916  8082.12  88.7704
 36.5896  8160.59  90.6458
 36.7876  7927.2  88.283
 36.9856  7698.57  87.0269
 37.1836  7746.64  86.4309
 37.3816  7873.87  87.499
 37.5796  7734.18  88.3973
 37.7776  7895.89  87.7099
 37.9756  7880.97  87.5171
 38.1736  8067.04  88.7344
 38.3716  7901  88.0858
 38.5696  7692.57  87.2789
 38.7676  7556.33  86.0218
 38.9656  7730.83  86.6387
 39.1636  7739.26  86.9282
 39.3616  7680.6  86.5635
 39.5596  7574.49  86.7829
 39.7576  7554.58  86.0684
 39.9556  7700.09  86.5469
 40.1536  7826.1  87.4441
 40.3516  7721.69  86.948
 40.5496  7740.71  87.0178
 40.7476  7739.62  87.232
 40.9456  7772.59  87.1719
 41.1436  7858.1  87.3766
 41.3416  7598.8  86.249
 41.5396  7657.32  86.3914
 41.7376  7771.42  87.2883
 41.9356  7583.78  86.0944
 42.1336  7855.96  87.7671
 42.3316  7673.97  86.9442
 42.5296  7594.36  86.0193
 42.7276  7610.99  86.3501
 42.9256  7643.47  86.411
 43.1236  7523.62  85.8214
 43.3216  7582.08  86.0153
 43.5196  7613.51  86.1026
 43.7176  7501.37  85.9027
 43.9156  7326.97  84.8214
 44.1136  7203.83  83.6701
 44.3116  7324.31  84.3748
 44.5096  7279.74  84.4272
 44.7076  7326.23  84.6066
 44.9056  7456.4  85.2491
 45.1036  7401.82  84.5594
 45.3016  7349.44  84.7553
 45.4996  7262.64  84.198
 45.6976  7352.96  84.8978
 45.8956  7244.5  84.0746
 46.0936  7416.87  84.8324
 46.2916  7365.18  84.7524
 46.4896  7355.98  84.735
 46.6876  7308.48  85.1646
 46.8856  7219.24  84.0325
 47.0836  7251.19  84.345
 47.2816  7124.8  83.4928
 47.4796  7236.11  84.2581
 47.6776  7146.72  84.6726
 47.8756  7246.61  84.4326
 48.0736  7243.24  84.8506
 48.2716  7106.7  83.8854
 48.4696  7140.6  83.6631
 48.6676  7171.92  84.4513
 48.8656  7210.68  84.4075
 49.0636  7174.81  84.1411
 49.2616  7065.83  83.5313
 49.4596  7112.03  83.3623
 49.6576  7049.66  83.234
 49.8556  7131.58  83.7288
 50.0536  7104.19  84.012
 50.2516  7063.17  83.8832
 50.4496  7051.46  83.4376
 50.6476  7027.88  83.0198
 50.8456  7070.33  83.3675
 51.0436  6793.84  82.1693
 51.2416  6862.02  82.2548
 51.4396  6741.59  81.9287
 51.6376  6844.29  82.3647
 51.8356  6790.22  81.5773
 52.0336  6785.74  82.1491
 52.2316  6806.6  82.6453
 52.4296  6770.76  82.3192
 52.6276  6661.75  81.5708
 52.8256  6840.27  82.2141
 53.0236  6833.26  82.7992
 53.2216  6722.27  82.3442
 53.4196  6790.83  82.4911
 53.6176  6731.28  82.6219
 53.8156  6767.13  82.5138
 54.0136  6471.59  80.8615
 54.2116  6551.93  81.0017
 54.4096  6393.53  80.0766
 54.6076  6355.99  80.1847
 54.8056  6336.42  79.8541
 55.0036  6410.03  80.5655
 55.2016  6314.85  79.5586
 55.3996  6221.35  79.0401
 55.5976  6221.96  79.2146
 55.7956  6261.2  79.2882
 55.9936  6322.43  79.7977
 56.1916  6235.14  79.2878
 56.3896  6132.21  78.611
 56.5876  6163.32  79.3401
 56.7856  6156.07  78.8145
 56.9836  6191.64  78.8181
 57.1816  6177.6  79.0762
 57.3796  6034.08  77.945
 57.5776  6064.55  78.0748
 57.7756  6007.97  78.3691
 57.9736  6002.92  78.0142
 58.1716  6001.26  78.3468
 58.3696  5729.72  76.2215
 58.5676  5801.6  76.1843
 58.7656  5739.6  76.4391
 58.9636  5701.16  76.2138
 59.1616  5739.29  76.5969
 59.3596  5804.48  76.3115
 59.5576  5633.84  75.2359
 59.7556  5678.22  75.9373
 59.9536  5717.6  76.1018
 60.1516  5828.39  77.6694
 60.1996  0.0000000E+00  0.0000000E+00