File: docs/examples/opeando_xrd/IS17_D/Data/IS17_D/17_Db_f00007.xye
# /beamlines/bl04/projects/cycle2025-II/20250340211-lsimonelli/DATA/IS17_D/17_Db_f00007.xye : mythproc.py merge -s 0.006 -l 0.5 -f /beamlines/bl04/inhouse/ff/FlatField/ff_20Nov2024rod8mm60s_17keV.raw -b True -c true -o xye /beamlines/bl04/projects/cycle2025-II/20250340211-lsimonelli/DATA/IS17_D/17_Db_00007.dat
# IsMon = [6761679, 6746387, 6746593]  IsPos = [-1.5000, -2.4885, -3.4988]
# Wave = 0.4962  CalPath /beamlines/bl04/projects/cycle2025-II/20250340211-lsimonelli/DATA/Align/Si_Pos1_25keV_f00001.cal
# Date = 2025-09-23_19:38:47 Dt = 4.8000  Bin = 0.0060  <imon> = 6751553 +/- 7161 (Min/Max) 6746387 / 6761679
# icurr 252.7899  mocoIn 1.7242E-05  mocoOut 0.8087  i15 7.06389e+06  imon 6.75155e+06  i7 4.6667  iEMpd_timer 4.8000  iEMpd_1 3.4598E-08  iEMpd_2 7.8062E-08  iEMpd_3 1.6358E-08  iEMpd_4 4.7625E-08  iEMhp_timer 4.8000  iEMhp_1 4.9389E-06  iEMhp_2 -2.4036E-08  iEMhp_3 -2.2784E-08  iEMhp_4 -2.0629E-08
#      9776
 1.7416  69146.6  262.836
 1.9396  47010.4  216.998
 2.1376  34163.4  184.983
 2.3356  30284.8  173.8
 2.5336  31343.2  177.433
 2.7316  26111.5  162.156
 2.9296  24607  157.567
 3.1276  24216  155.833
 3.3256  23265.3  152.47
 3.5236  25216.6  158.653
 3.7216  22799.3  151.975
 3.9196  22722.5  150.923
 4.1176  22198  148.945
 4.3156  23339.7  152.939
 4.5136  26233.1  161.122
 4.7116  26856.6  164.136
 4.9096  26121.4  161.313
 5.1076  25632.9  160.336
 5.3056  25655.9  160.182
 5.5036  25207.5  158.758
 5.7016  25632.9  159.973
 5.8996  26032.3  160.466
 6.0976  26936.3  164.575
 6.2956  26986.8  164.151
 6.4936  28040.6  166.514
 6.6916  28363.5  168.422
 6.8896  29349.5  171.182
 7.0876  30582.8  175.359
 7.2856  30016.4  172.918
 7.4836  30840.2  174.635
 7.6816  31516.1  177.044
 7.8796  32279.4  179.259
 8.0776  35461.5  188.872
 8.2756  36403.9  189.987
 8.4736  36052.3  188.878
 8.6716  35716.9  188.612
 8.8696  37328.9  193.215
 9.0676  35781  188.501
 9.2656  34388.4  185.469
 9.4636  33063.1  180.399
 9.6616  32364.6  179.195
 9.8596  31868.6  177.245
 10.0576  29817.4  172.13
 10.2556  28776.8  169.501
 10.4536  31813.6  177.802
 10.6516  31746.4  177.84
 10.8496  26467.2  161.819
 11.0476  26287.1  161.268
 11.2456  28207.8  167.668
 11.4436  25756.2  159.377
 11.6416  24628.1  156.169
 11.8396  23982.6  154.291
 12.0376  23176.2  151.359
 12.2356  24317.8  155.485
 12.4336  23725.7  153.096
 12.6316  22870.6  150.54
 12.8296  23321.6  151.674
 13.0276  23276  151.748
 13.2256  23286.7  152.11
 13.4236  23517  152.638
 13.6216  23708.6  153.218
 13.8196  26508.6  161.5
 14.0176  22906.4  150.738
 14.2156  22545.8  148.575
 14.4136  21104.3  145.091
 14.6116  21045.1  144.094
 14.8096  20075.6  140.737
 15.0076  19386.8  142.078
 15.2056  18292.9  134.012
 15.4036  17483.3  131.817
 15.6016  17359.7  130.464
 15.7996  16789.4  128.569
 15.9976  16535.7  130.375
 16.1956  16295.7  127.323
 16.3936  15943.4  125.137
 16.5916  15819.3  125.282
 16.7896  15794.9  125.24
 16.9876  15531.3  125.63
 17.1856  15407.5  123.557
 17.3836  14884.8  121.328
 17.5816  14433.7  119.934
 17.7796  14507.1  120.178
 17.9776  14424.2  120.616
 18.1756  15777.5  124.859
 18.3736  15126.7  122.756
 18.5716  13991  117.802
 18.7696  13901.3  117.006
 18.9676  13619.2  115.591
 19.1656  13328.1  114.952
 19.3636  13230.9  114.723
 19.5616  13198.2  114.732
 19.7596  13597.9  115.845
 19.9576  14054.9  117.838
 20.1556  13213.2  114.782
 20.3536  12889.5  112.761
 20.5516  12754.1  112.587
 20.7496  12573  111.618
 20.9476  13022.6  113.449
 21.1456  12868.2  113.139
 21.3436  12442.7  111.183
 21.5416  12404.7  111.028
 21.7396  11972.8  108.927
 21.9376  12194.4  109.718
 22.1356  12498.2  111.327
 22.3336  12025.6  109.365
 22.5316  12177.3  110.164
 22.7296  11765.8  107.672
 22.9276  11677.5  107.914
 23.1256  12097.5  109.324
 23.3236  12200.5  110.287
 23.5216  12110.8  109.511
 23.7196  12048.4  109.385
 23.9176  12131.1  109.294
 24.1156  11765.3  108.114
 24.3136  11573.9  108.019
 24.5116  11593.2  107.632
 24.7096  11430.7  106.704
 24.9076  11319.1  106.187
 25.1056  10983  104.824
 25.3036  10644.7  102.991
 25.5016  10691.7  103.253
 25.6996  10723.3  102.993
 25.8976  10963  104.549
 26.0956  10629.9  102.987
 26.2936  10607.9  102.548
 26.4916  10849.5  103.56
 26.6896  10500  102.169
 26.8876  10319.7  101.133
 27.0856  10241  100.798
 27.2836  10098.5  100.019
 27.4816  10081.8  99.8691
 27.6796  9936.5  99.507
 27.8776  10394.8  101.616
 28.0756  9813.33  99.048
 28.2736  9828.16  98.6972
 28.4716  9618.03  97.6882
 28.6696  9594.89  97.4227
 28.8676  9477.78  97.1636
 29.0656  9350.81  96.4917
 29.2636  9435.24  96.6113
 29.4616  9054.54  94.9663
 29.6596  9190.61  95.2548
 29.8576  8984.49  94.8455
 30.0556  9166.26  95.6784
 30.2536  9216.52  95.7334
 30.4516  9063.77  94.5354
 30.6496  9306.8  95.5246
 30.8476  9135.55  95.0647
 31.0456  9179.92  95.2586
 31.2436  9139.52  94.3198
 31.4416  9013.16  93.8667
 31.6396  9288.98  95.3381
 31.8376  9095.42  93.8563
 32.0356  9078.81  94.3556
 32.2336  8930.36  92.9706
 32.4316  8732.05  92.3762
 32.6296  8698.16  91.9618
 32.8276  8682.62  91.7369
 33.0256  8571.17  91.1972
 33.2236  8572.19  91.3269
 33.4216  8600.57  91.2123
 33.6196  8501.51  90.9608
 33.8176  8494.83  91.0921
 34.0156  8469.78  90.5841
 34.2136  8432.28  90.385
 34.4116  8251.39  89.6098
 34.6096  8434.75  90.463
 34.8076  8265.64  89.9605
 35.0056  8308.28  89.8665
 35.2036  8522.99  91.2255
 35.4016  8147.65  89.1381
 35.5996  8078.52  88.7821
 35.7976  8092.64  89.1299
 35.9956  8201.13  89.3777
 36.1936  8230.16  89.3849
 36.3916  8050.74  88.5953
 36.5896  8182.64  90.7497
 36.7876  7841.77  87.8456
 36.9856  7760.11  87.4125
 37.1836  7815.94  86.8499
 37.3816  7781.71  87.0175
 37.5796  7860.61  89.118
 37.7776  7760.25  86.9151
 37.9756  7958.91  87.9122
 38.1736  8076.26  88.7657
 38.3716  7900.46  88.0658
 38.5696  7699.47  87.3179
 38.7676  7667.57  86.6423
 38.9656  7777.51  86.8974
 39.1636  7682.45  86.596
 39.3616  7743.25  86.9227
 39.5596  7640.14  87.1681
 39.7576  7582.57  86.2364
 39.9556  7651.07  86.2657
 40.1536  7845.43  87.5487
 40.3516  7752.77  87.0558
 40.5496  7691.52  86.7479
 40.7476  7705.22  87.0252
 40.9456  7769.63  87.1481
 41.1436  7792.92  86.9928
 41.3416  7649.86  86.5521
 41.5396  7685.06  86.5467
 41.7376  7631.2  86.5014
 41.9356  7567.42  86.0002
 42.1336  7827.7  87.5798
 42.3316  7533.33  86.1557
 42.5296  7726.64  86.753
 42.7276  7672.35  86.6948
 42.9256  7677.98  86.602
 43.1236  7484.82  85.603
 43.3216  7637.07  86.3232
 43.5196  7541.17  85.7363
 43.7176  7476.12  85.759
 43.9156  7317.8  84.8008
 44.1136  7306.55  84.298
 44.3116  7410.68  84.9057
 44.5096  7367.55  84.9644
 44.7076  7280.5  84.393
 44.9056  7431.98  85.0827
 45.1036  7405.84  84.5616
 45.3016  7339.92  84.6833
 45.4996  7350.68  84.6835
 45.6976  7219.95  84.1195
 45.8956  7360.54  84.7342
 46.0936  7508.34  85.3348
 46.2916  7296.18  84.3439
 46.4896  7389.85  84.9195
 46.6876  7272.23  84.9449
 46.8856  7313.94  84.4601
 47.0836  7196.41  84.0181
 47.2816  7236.06  84.1559
 47.4796  7228.46  84.2079
 47.6776  7180.99  84.8785
 47.8756  7161.69  83.9411
 48.0736  7140.07  84.2561
 48.2716  7080.02  83.7373
 48.4696  7295.51  84.5807
 48.6676  7180.67  84.4985
 48.8656  7255.24  84.6522
 49.0636  7313.98  84.9393
 49.2616  7049.92  83.4486
 49.4596  7098.52  83.2859
 49.6576  7173.21  83.9495
 49.8556  7164.66  83.9202
 50.0536  7160.44  84.3529
 50.2516  7107.44  84.1436
 50.4496  7106.41  83.8272
 50.6476  7145.55  83.7258
 50.8456  7124.8  83.684
 51.0436  6938.9  83.0743
 51.2416  6911.98  82.584
 51.4396  6747.29  81.994
 51.6376  6861.3  82.5077
 51.8356  6825.39  81.9084
 52.0336  6827.75  82.3955
 52.2316  6815.65  82.6761
 52.4296  6754.23  82.0188
 52.6276  6645.24  81.4703
 52.8256  7011.3  83.2149
 53.0236  6874.43  83.0423
 53.2216  6750.88  82.3133
 53.4196  6712.88  81.9872
 53.6176  6809.83  83.0921
 53.8156  6663.12  81.8683
 54.0136  6515.96  81.1503
 54.2116  6730.78  82.0938
 54.4096  6489.6  80.6992
 54.6076  6484.65  80.9957
 54.8056  6291.02  79.5519
 55.0036  6515.12  81.2217
 55.2016  6389.51  80.0255
 55.3996  6239.31  79.1648
 55.5976  6341.08  79.9909
 55.7956  6304.04  79.5543
 55.9936  6380.77  80.1583
 56.1916  6197.07  79.0432
 56.3896  6139.12  78.6797
 56.5876  6236.99  79.8308
 56.7856  6127.64  78.6249
 56.9836  6218.09  78.9607
 57.1816  6301.03  79.8431
 57.3796  6070.48  78.226
 57.5776  6189.39  78.8617
 57.7756  5991.76  78.2612
 57.9736  6044.64  78.2729
 58.1716  5980.09  78.1289
 58.3696  5875.17  77.2236
 58.5676  5905.9  76.9042
 58.7656  5787.85  76.7876
 58.9636  5728.81  76.4279
 59.1616  5795.11  76.9909
 59.3596  5913.19  77.0459
 59.5576  5814.57  76.4564
 59.7556  5631.4  75.6466
 59.9536  5944.38  77.6199
 60.1516  5847.4  77.8196
 60.1996  0.0000000E+00  0.0000000E+00