File: docs/examples/opeando_xrd/IS17_D/Data/IS17_D/17_Db_f00087.xye
# /beamlines/bl04/projects/cycle2025-II/20250340211-lsimonelli/DATA/IS17_D/17_Db_f00087.xye : mythproc.py merge -s 0.006 -l 0.5 -f /beamlines/bl04/inhouse/ff/FlatField/ff_20Nov2024rod8mm60s_17keV.raw -b True -c true -o xye /beamlines/bl04/projects/cycle2025-II/20250340211-lsimonelli/DATA/IS17_D/17_Db_00087.dat
# IsMon = [6743782, 6742588, 6744669]  IsPos = [-1.4999, -2.4884, -3.4988]
# Wave = 0.4962  CalPath /beamlines/bl04/projects/cycle2025-II/20250340211-lsimonelli/DATA/Align/Si_Pos1_25keV_f00001.cal
# Date = 2025-09-24_17:55:30 Dt = 4.8000  Bin = 0.0060  <imon> = 6743680 +/- 853 (Min/Max) 6742588 / 6744669
# icurr 249.0098  mocoIn 1.6998E-05  mocoOut 0.7968  i15 7.06606e+06  imon 6.74368e+06  i7 5.3333  iEMpd_timer 4.8000  iEMpd_1 3.2807E-08  iEMpd_2 7.7536E-08  iEMpd_3 1.6377E-08  iEMpd_4 4.5851E-08  iEMhp_timer 4.8000  iEMhp_1 4.8661E-06  iEMhp_2 -2.3890E-08  iEMhp_3 -2.3700E-08  iEMhp_4 -2.0779E-08
#      9776
 1.7416  69361.1  263.439
 1.9396  48244.3  219.992
 2.1376  35132  187.725
 2.3356  31420.9  177.161
 2.5336  29011  170.831
 2.7316  26687  163.97
 2.9296  25746.7  161.206
 3.1276  25107.6  158.734
 3.3256  24334.1  155.943
 3.5236  25838  160.488
 3.7216  23929.6  155.683
 3.9196  23230.9  152.611
 4.1176  23470.2  153.168
 4.3156  24223.2  155.785
 4.5136  26547.5  162.075
 4.7116  27817.2  167.046
 4.9096  26967.6  163.908
 5.1076  26776.6  163.906
 5.3056  26994.8  164.292
 5.5036  26663.2  163.197
 5.7016  27065.4  164.379
 5.8996  27661.4  165.412
 6.0976  28641.2  169.732
 6.2956  28456.7  168.533
 6.4936  29334  170.298
 6.6916  29542.7  171.899
 6.8896  30290.8  173.912
 7.0876  31200.4  177.25
 7.2856  30995.7  175.713
 7.4836  31411.8  176.244
 7.6816  32141.3  178.784
 7.8796  32727.1  180.429
 8.0776  34126.8  185.215
 8.2756  35964.6  188.757
 8.4736  36755.9  190.644
 8.6716  36000.9  189.296
 8.8696  36724.1  191.671
 9.0676  35927.4  188.908
 9.2656  35218.9  187.735
 9.4636  34017.8  182.977
 9.6616  33114.8  181.25
 9.8596  32684.2  179.529
 10.0576  30673.4  174.592
 10.2556  29693.2  172.218
 10.4536  29089.9  170.065
 10.6516  28706.6  169.144
 10.8496  27581  165.207
 11.0476  26772  162.779
 11.2456  25871.2  160.556
 11.4436  26434.7  161.461
 11.6416  25529.1  159.006
 11.8396  24321.1  155.397
 12.0376  23940.2  153.827
 12.2356  23471.1  152.727
 12.4336  23613.1  152.735
 12.6316  23537.4  152.743
 12.8296  23433.2  152.024
 13.0276  23809.2  153.454
 13.2256  24060.9  154.62
 13.4236  23859.2  153.745
 13.6216  24259.1  155.011
 13.8196  26276.5  160.794
 14.0176  23320.9  152.078
 14.2156  22981.8  150
 14.4136  21895.6  147.786
 14.6116  21679.9  146.256
 14.8096  20864.9  143.462
 15.0076  20021.8  144.407
 15.2056  19134  137.011
 15.4036  18240.5  134.585
 15.6016  17930.5  132.54
 15.7996  17448.8  131.01
 15.9976  17140.9  132.721
 16.1956  16771.8  129.197
 16.3936  16633.4  127.834
 16.5916  16119.2  126.488
 16.7896  16337  127.397
 16.9876  16107.4  127.942
 17.1856  15802  125.134
 17.3836  15399.2  123.434
 17.5816  15059  122.541
 17.7796  14674.8  120.893
 17.9776  14539.7  121.103
 18.1756  14908.5  121.372
 18.3736  14707.7  121.037
 18.5716  14321.8  119.193
 18.7696  14233.7  118.389
 18.9676  14122.9  117.733
 19.1656  13794.7  116.937
 19.3636  13677.3  116.633
 19.5616  13675.2  116.789
 19.7596  14138.7  118.143
 19.9576  14136.6  118.18
 20.1556  13713.7  116.918
 20.3536  13332.6  114.678
 20.5516  13068.1  113.97
 20.7496  12749.3  112.506
 20.9476  12977.9  113.275
 21.1456  12769.4  112.678
 21.3436  12686.5  112.271
 21.5416  12665.9  112.189
 21.7396  12429.6  110.982
 21.9376  12340.5  110.361
 22.1356  12399.2  110.746
 22.3336  12172.5  110.014
 22.5316  12205.6  110.25
 22.7296  12297.9  110.029
 22.9276  11858.8  108.705
 23.1256  12330.6  110.324
 23.3236  12367.7  111.058
 23.5216  12380.4  110.753
 23.7196  12197.4  109.886
 23.9176  12428.8  110.674
 24.1156  12084.5  109.562
 24.3136  11521.9  107.796
 24.5116  11851.8  108.848
 24.7096  11596.7  107.496
 24.9076  11421.5  106.698
 25.1056  11034.7  105.329
 25.3036  10867.5  104.054
 25.5016  10867.8  104.101
 25.6996  10868.5  103.685
 25.8976  10869.3  104.119
 26.0956  10740.6  103.51
 26.2936  10597.1  102.489
 26.4916  10898.1  103.785
 26.6896  10579.3  102.562
 26.8876  10572.3  102.382
 27.0856  10246.9  100.853
 27.2836  10221.6  100.617
 27.4816  10068.3  99.8052
 27.6796  10107.7  100.366
 27.8776  10282.7  101.084
 28.0756  9869.96  99.321
 28.2736  9906.08  99.088
 28.4716  9708.78  98.1435
 28.6696  9812.26  98.5147
 28.8676  9715.45  98.3809
 29.0656  9490.39  97.2076
 29.2636  9515.9  97.1351
 29.4616  9281.59  96.115
 29.6596  9319.24  95.883
 29.8576  9173.72  95.8034
 30.0556  9119.91  95.3996
 30.2536  9191.1  95.5719
 30.4516  9451.53  96.5393
 30.6496  9438.36  96.2126
 30.8476  9426.59  96.5913
 31.0456  9437.37  96.6155
 31.2436  9349.28  95.4344
 31.4416  9210.72  94.914
 31.6396  9299.39  95.4064
 31.8376  9245.99  94.6649
 32.0356  9088.88  94.4123
 32.2336  9133.67  94.061
 32.4316  8795.34  92.702
 32.6296  8788.5  92.5042
 32.8276  8908.9  92.9213
 33.0256  8693.66  91.8562
 33.2236  8782.48  92.4716
 33.4216  8668.79  91.5524
 33.6196  8735.76  92.2043
 33.8176  8579.74  91.5428
 34.0156  8507.54  90.7713
 34.2136  8702.13  91.8274
 34.4116  8446.72  90.6495
 34.6096  8422.89  90.3964
 34.8076  8436.5  90.8861
 35.0056  8306.48  89.8567
 35.2036  8580.34  91.5492
 35.4016  8193.86  89.3781
 35.5996  8306.63  90.0235
 35.7976  8320.58  90.375
 35.9956  8317.9  90.0095
 36.1936  8354.81  90.0588
 36.3916  8135.16  89.0668
 36.5896  8123.52  89.9806
 36.7876  7909.89  88.1908
 36.9856  7757.04  87.3645
 37.1836  7804.62  86.7502
 37.3816  7877.07  87.5135
 37.5796  7930.76  89.5177
 37.7776  7966.11  88.0937
 37.9756  8019.13  88.2728
 38.1736  7960.46  88.1425
 38.3716  7947.52  88.3331
 38.5696  7813.58  87.9583
 38.7676  7802.25  87.4194
 38.9656  7803.83  87.0583
 39.1636  7823.48  87.4283
 39.3616  7913.31  87.8765
 39.5596  7662.23  87.2865
 39.7576  7702.28  86.9129
 39.9556  7826.77  87.2513
 40.1536  7865.76  87.6638
 40.3516  7759.22  87.0809
 40.5496  7895.12  88.098
 40.7476  7896.05  88.109
 40.9456  7865.17  87.6919
 41.1436  7990.17  88.1019
 41.3416  7694.77  86.7907
 41.5396  7768.54  87.0205
 41.7376  7661.4  86.6725
 41.9356  7603.6  86.2029
 42.1336  7867.99  87.8213
 42.3316  7597.64  86.514
 42.5296  7800.57  87.1793
 42.7276  7752.66  87.1485
 42.9256  7608.21  86.2074
 43.1236  7619.79  86.3773
 43.3216  7741.26  86.8052
 43.5196  7688.32  86.5756
 43.7176  7518.58  85.9951
 43.9156  7355.83  84.9902
 44.1136  7434.17  84.9993
 44.3116  7434.21  85.0109
 44.5096  7223.18  84.0944
 44.7076  7324.51  84.6174
 44.9056  7595.95  86.0348
 45.1036  7552.74  85.4156
 45.3016  7420.52  85.1633
 45.4996  7414.51  85.0641
 45.6976  7376.26  85.0216
 45.8956  7434.59  85.1762
 46.0936  7476.94  85.418
 46.2916  7384.01  84.8643
 46.4896  7398.81  84.9739
 46.6876  7408.12  85.7548
 46.8856  7277.31  84.2483
 47.0836  7327.38  84.7902
 47.2816  7229.85  84.1102
 47.4796  7244.25  84.2874
 47.6776  7120.88  84.5135
 47.8756  7283.75  84.6508
 48.0736  7254.58  84.9348
 48.2716  7145.29  84.1022
 48.4696  7418.28  85.2776
 48.6676  7317.69  85.2918
 48.8656  7323.15  85.0637
 49.0636  7292.49  84.8287
 49.2616  7132.28  83.9301
 49.4596  7130.96  83.4683
 49.6576  7149.92  83.8225
 49.8556  7164.42  83.9234
 50.0536  7180.88  84.4647
 50.2516  7177.64  84.5867
 50.4496  7110.81  83.8451
 50.6476  7102.13  83.4707
 50.8456  7168.26  83.9472
 51.0436  7025.4  83.5588
 51.2416  6943.57  82.7403
 51.4396  6707.3  81.7164
 51.6376  6851.45  82.4166
 51.8356  6910.99  82.3835
 52.0336  6919.79  82.9602
 52.2316  6893.44  83.1563
 52.4296  6955.17  83.2297
 52.6276  6790.03  82.3314
 52.8256  6975.95  83.018
 53.0236  6815.57  82.6993
 53.2216  6872.71  83.0842
 53.4196  6961.18  83.5185
 53.6176  6762  82.8285
 53.8156  6762.8  82.498
 54.0136  6458.67  80.7879
 54.2116  6754.67  82.238
 54.4096  6551.69  81.0695
 54.6076  6518.9  81.1986
 54.8056  6476.21  80.7245
 55.0036  6451.35  80.9804
 55.2016  6477.91  80.6441
 55.3996  6247  79.2025
 55.5976  6404.62  80.3886
 55.7956  6340.94  79.7874
 55.9936  6426.76  80.4622
 56.1916  6338.93  79.9473
 56.3896  6164.91  78.8223
 56.5876  6180.9  79.4696
 56.7856  6171.9  78.9159
 56.9836  6337.42  79.7329
 57.1816  6343.38  80.1373
 57.3796  6137.97  78.6467
 57.5776  6188.24  78.8708
 57.7756  6062.61  78.7157
 57.9736  6050.41  78.2959
 58.1716  6013.66  78.337
 58.3696  5810.22  76.7592
 58.5676  5863.21  76.5829
 58.7656  5959.45  77.8923
 58.9636  5835.94  77.1108
 59.1616  5875.68  77.5037
 59.3596  5770.88  76.0788
 59.5576  5856.23  76.696
 59.7556  5759.37  76.4675
 59.9536  5825.61  76.8067
 60.1516  5846.11  77.7768
 60.1996  0.0000000E+00  0.0000000E+00