File: docs/examples/opeando_xrd/IS17_D/Data/IS17_D/17_Db_f00071.xye
# /beamlines/bl04/projects/cycle2025-II/20250340211-lsimonelli/DATA/IS17_D/17_Db_f00071.xye : mythproc.py merge -s 0.006 -l 0.5 -f /beamlines/bl04/inhouse/ff/FlatField/ff_20Nov2024rod8mm60s_17keV.raw -b True -c true -o xye /beamlines/bl04/projects/cycle2025-II/20250340211-lsimonelli/DATA/IS17_D/17_Db_00071.dat
# IsMon = [6762062, 6765885, 6766978]  IsPos = [-1.4999, -2.4884, -3.4988]
# Wave = 0.4962  CalPath /beamlines/bl04/projects/cycle2025-II/20250340211-lsimonelli/DATA/Align/Si_Pos1_25keV_f00001.cal
# Date = 2025-09-24_13:27:47 Dt = 4.8000  Bin = 0.0060  <imon> = 6764975 +/- 2108 (Min/Max) 6762062 / 6766978
# icurr 250.7645  mocoIn 1.7100E-05  mocoOut 0.8021  i15 7.08702e+06  imon 6.76498e+06  i7 2.6667  iEMpd_timer 4.8000  iEMpd_1 3.3707E-08  iEMpd_2 7.7593E-08  iEMpd_3 1.6581E-08  iEMpd_4 4.7656E-08  iEMhp_timer 4.8000  iEMhp_1 4.8974E-06  iEMhp_2 -2.6710E-08  iEMhp_3 -2.3674E-08  iEMhp_4 -2.1644E-08
#      9776
 1.7416  68542.2  261.937
 1.9396  47204.6  217.655
 2.1376  34580.4  186.287
 2.3356  31238.6  176.686
 2.5336  30503.7  175.21
 2.7316  26290.4  162.754
 2.9296  25167.8  159.402
 3.1276  24504.6  156.838
 3.3256  23895.1  154.527
 3.5236  25315  158.853
 3.7216  23221  153.373
 3.9196  23275.9  152.754
 4.1176  22761.2  150.853
 4.3156  23695.1  154.08
 4.5136  26855.2  163.006
 4.7116  27173.5  165.102
 4.9096  26569  162.688
 5.1076  26262.3  162.333
 5.3056  26244.6  161.987
 5.5036  25928.3  160.928
 5.7016  26347  162.187
 5.8996  27006.5  163.443
 6.0976  27730.5  167.016
 6.2956  27787.9  166.54
 6.4936  28623.8  168.24
 6.6916  28846.1  169.857
 6.8896  30142.4  173.484
 7.0876  30747.7  175.957
 7.2856  30655.3  174.747
 7.4836  31465.7  176.398
 7.6816  32025  178.456
 7.8796  33061.4  181.322
 8.0776  36517.5  191.571
 8.2756  36932.1  191.266
 8.4736  36739.7  190.58
 8.6716  36499.9  190.578
 8.8696  37776.5  194.415
 9.0676  36868.2  191.38
 9.2656  35274.1  187.898
 9.4636  34228.2  183.544
 9.6616  33087  181.186
 9.8596  32887.1  180.093
 10.0576  30641.1  174.492
 10.2556  29910.2  172.854
 10.4536  33359.4  182.124
 10.6516  33429  182.534
 10.8496  27384  164.622
 11.0476  27246.7  164.218
 11.2456  29442.2  171.271
 11.4436  26491.8  161.632
 11.6416  25525.2  159.004
 11.8396  24578.6  156.232
 12.0376  23838.4  153.496
 12.2356  25264.1  158.445
 12.4336  24475.2  155.503
 12.6316  23394.6  152.296
 12.8296  23828.2  153.317
 13.0276  23964.9  153.951
 13.2256  24039.2  154.553
 13.4236  24079  154.457
 13.6216  24316.2  155.219
 13.8196  27059.1  163.163
 14.0176  23309.3  152.033
 14.2156  23111.9  150.425
 14.4136  21782.8  147.408
 14.6116  21641  146.125
 14.8096  20650.7  142.725
 15.0076  20125.3  144.779
 15.2056  18854.5  135.992
 15.4036  18263.5  134.663
 15.6016  17845.9  132.213
 15.7996  17418.2  130.888
 15.9976  17133.6  132.68
 16.1956  16828.1  129.428
 16.3936  16402.2  126.955
 16.5916  16270.1  127.087
 16.7896  16487.3  127.986
 16.9876  16100.5  127.921
 17.1856  15795.9  125.105
 17.3836  15109.6  122.273
 17.5816  14929.7  122.018
 17.7796  15136.2  122.788
 17.9776  15075  123.319
 18.1756  15773.3  124.845
 18.3736  15653.9  124.864
 18.5716  14439.2  119.681
 18.7696  14439  119.243
 18.9676  14166.5  117.915
 19.1656  13826.2  117.064
 19.3636  13714.4  116.787
 19.5616  13747  117.097
 19.7596  13988.2  117.529
 19.9576  14315.2  118.929
 20.1556  13474.7  115.893
 20.3536  13288.9  114.494
 20.5516  13168.5  114.413
 20.7496  12787  112.679
 20.9476  13384.7  115.038
 21.1456  13198.7  114.554
 21.3436  12684.6  112.258
 21.5416  12766.1  112.636
 21.7396  12471.2  111.164
 21.9376  12494.2  111.044
 22.1356  12810.7  112.562
 22.3336  12453.6  111.262
 22.5316  12500.2  111.562
 22.7296  12260.6  109.86
 22.9276  12001.8  109.35
 23.1256  12441.1  110.81
 23.3236  12365.3  111.054
 23.5216  12568.8  111.598
 23.7196  12233.6  110.059
 23.9176  12455.2  110.803
 24.1156  12061.6  109.494
 24.3136  11912.6  109.619
 24.5116  11980.1  109.452
 24.7096  11773  108.309
 24.9076  11680.6  107.919
 25.1056  11242  106.338
 25.3036  11028.4  104.826
 25.5016  11054.1  104.988
 25.6996  11083.5  104.705
 25.8976  11235.5  105.869
 26.0956  10998.7  104.744
 26.2936  10825.7  103.581
 26.4916  11058.4  104.541
 26.6896  10637.6  102.835
 26.8876  10572  102.386
 27.0856  10404.3  101.63
 27.2836  10327.3  101.142
 27.4816  10280.6  100.852
 27.6796  10109.8  100.368
 27.8776  10646.1  102.854
 28.0756  10074.5  100.342
 28.2736  10123.3  100.172
 28.4716  9861.08  98.9146
 28.6696  9849.43  98.7005
 28.8676  9699.96  98.3019
 29.0656  9619.8  97.8668
 29.2636  9683.72  97.9908
 29.4616  9301.53  96.2078
 29.6596  9395.56  96.2641
 29.8576  9206.22  95.9628
 30.0556  9357.78  96.6236
 30.2536  9340.66  96.3352
 30.4516  9540.41  97.0077
 30.6496  9472.28  96.398
 30.8476  9380.39  96.3701
 31.0456  9444.27  96.659
 31.2436  9339.42  95.3988
 31.4416  9301.01  95.383
 31.6396  9651.62  97.2044
 31.8376  9399.76  95.4618
 32.0356  9207.62  95.0467
 32.2336  9123.71  94.0211
 32.4316  8951.16  93.5166
 32.6296  8905.4  93.1165
 32.8276  8910.86  92.9276
 33.0256  8840.32  92.6195
 33.2236  8927.55  93.2321
 33.4216  8744.79  91.955
 33.6196  8818.71  92.6368
 33.8176  8819.73  92.8185
 34.0156  8580.93  91.1753
 34.2136  8750.38  92.0956
 34.4116  8512.14  90.996
 34.6096  8607.99  91.3802
 34.8076  8473.21  91.0847
 35.0056  8515.37  90.9749
 35.2036  8649.32  91.9247
 35.4016  8447.64  90.7496
 35.5996  8499.15  91.0666
 35.7976  8376.03  90.6762
 35.9956  8500.71  90.9992
 36.1936  8507.78  90.8908
 36.3916  8270.79  89.8059
 36.5896  8434.96  91.6913
 36.7876  8149.57  89.5072
 36.9856  7958.74  88.4789
 37.1836  7908.57  87.3158
 37.3816  7946.25  87.8871
 37.5796  8059.99  90.2408
 37.7776  8256.21  89.6976
 37.9756  8142.15  88.9598
 38.1736  8415.68  90.6312
 38.3716  8150.24  89.4642
 38.5696  8038.44  89.2133
 38.7676  7850.78  87.6936
 38.9656  8020.34  88.2537
 39.1636  8013.19  88.502
 39.3616  7989.82  88.2959
 39.5596  7747.35  87.7702
 39.7576  7786.01  87.3838
 39.9556  7876.87  87.5344
 40.1536  7962.97  88.2024
 40.3516  7959.79  88.2
 40.5496  7857  87.8834
 40.7476  7914.06  88.2078
 40.9456  7989.47  88.3813
 41.1436  8040.66  88.3848
 41.3416  7806.28  87.4143
 41.5396  7829.68  87.3515
 41.7376  7862.91  87.8011
 41.9356  7778.78  87.1897
 42.1336  8014.64  88.652
 42.3316  7762.81  87.442
 42.5296  7885.61  87.6553
 42.7276  7891.88  87.9225
 42.9256  7883.98  87.7557
 43.1236  7720.93  86.9512
 43.3216  7797.4  87.1287
 43.5196  7738.16  86.8605
 43.7176  7605.81  86.498
 43.9156  7444.41  85.4922
 44.1136  7460.84  85.1424
 44.3116  7589.04  85.8787
 44.5096  7346.21  84.8027
 44.7076  7547.89  85.8884
 44.9056  7596.6  86.045
 45.1036  7526.96  85.2682
 45.3016  7492.04  85.5772
 45.4996  7445.93  85.2466
 45.6976  7432.34  85.3459
 45.8956  7544.84  85.8094
 46.0936  7682.34  86.5918
 46.2916  7486.16  85.4533
 46.4896  7511.69  85.6299
 46.6876  7549.26  86.5741
 46.8856  7469.3  85.3603
 47.0836  7430.84  85.3979
 47.2816  7306.13  84.5516
 47.4796  7439.51  85.4316
 47.6776  7322.44  85.708
 47.8756  7342.38  84.9775
 48.0736  7370.11  85.6162
 48.2716  7256.74  84.7632
 48.4696  7431.69  85.3553
 48.6676  7405.34  85.8138
 48.8656  7346.84  85.1941
 49.0636  7369.04  85.2827
 49.2616  7208.25  84.3683
 49.4596  7349.1  84.7472
 49.6576  7236.09  84.3225
 49.8556  7287.76  84.6436
 50.0536  7240.53  84.8178
 50.2516  7226.97  84.8711
 50.4496  7141.15  84.0223
 50.6476  7257.88  84.3834
 50.8456  7270.08  84.5366
 51.0436  7011.61  83.4612
 51.2416  7009.12  83.1191
 51.4396  6917.42  82.9816
 51.6376  6980.86  83.1826
 51.8356  6944.53  82.5834
 52.0336  6944.59  83.1076
 52.2316  6990.52  83.7504
 52.4296  6830.8  82.4827
 52.6276  6874.52  82.852
 52.8256  6974.78  83.0134
 53.0236  7035.77  84.0315
 53.2216  6923.24  83.3961
 53.4196  6836.61  82.7789
 53.6176  6812.14  83.1327
 53.8156  6942.18  83.5849
 54.0136  6623.69  81.8104
 54.2116  6647.69  81.6057
 54.4096  6571.34  81.1902
 54.6076  6590.86  81.6596
 54.8056  6496.96  80.8436
 55.0036  6495.38  81.2593
 55.2016  6645.76  81.6975
 55.3996  6376.28  80.0152
 55.5976  6400.68  80.3609
 55.7956  6441.52  80.428
 55.9936  6542.8  81.1808
 56.1916  6370.9  80.1463
 56.3896  6222.71  79.1805
 56.5876  6273.49  80.0595
 56.7856  6320.75  79.8581
 56.9836  6360.63  79.8923
 57.1816  6388.66  80.4248
 57.3796  6256.72  79.4107
 57.5776  6305.78  79.5883
 57.7756  6138.68  79.2151
 57.9736  6215.55  79.3613
 58.1716  6119.9  79.0175
 58.3696  5930.81  77.55
 58.5676  5982.57  77.3564
 58.7656  5929.41  77.6845
 58.9636  5961.5  77.9239
 59.1616  5907.75  77.7058
 59.3596  6021.24  77.7067
 59.5576  5949.89  77.3011
 59.7556  5892.41  77.3399
 59.9536  5994.52  77.9064
 60.1516  5913.82  78.2201
 60.1996  0.0000000E+00  0.0000000E+00