File: docs/examples/opeando_xrd/IS17_D/Data/IS17_D/17_Db_f00064.xye
# /beamlines/bl04/projects/cycle2025-II/20250340211-lsimonelli/DATA/IS17_D/17_Db_f00064.xye : mythproc.py merge -s 0.006 -l 0.5 -f /beamlines/bl04/inhouse/ff/FlatField/ff_20Nov2024rod8mm60s_17keV.raw -b True -c true -o xye /beamlines/bl04/projects/cycle2025-II/20250340211-lsimonelli/DATA/IS17_D/17_Db_00064.dat
# IsMon = [6754971, 6754813, 6752011]  IsPos = [-1.5000, -2.4884, -3.4988]
# Wave = 0.4962  CalPath /beamlines/bl04/projects/cycle2025-II/20250340211-lsimonelli/DATA/Align/Si_Pos1_25keV_f00001.cal
# Date = 2025-09-24_11:31:59 Dt = 4.8000  Bin = 0.0060  <imon> = 6753932 +/- 1360 (Min/Max) 6752011 / 6754971
# icurr 249.6809  mocoIn 1.7038E-05  mocoOut 0.7993  i15 7.07356e+06  imon 6.75393e+06  i7 3.6667  iEMpd_timer 4.8000  iEMpd_1 3.4676E-08  iEMpd_2 7.8979E-08  iEMpd_3 1.6849E-08  iEMpd_4 4.7976E-08  iEMhp_timer 4.8000  iEMhp_1 4.8790E-06  iEMhp_2 -2.3642E-08  iEMhp_3 -2.4090E-08  iEMhp_4 -2.0739E-08
#      9776
 1.7416  69266.6  263.241
 1.9396  48169.2  219.803
 2.1376  35054.1  187.504
 2.3356  31366.5  176.995
 2.5336  29656  172.707
 2.7316  26670.9  163.903
 2.9296  25371.1  160.015
 3.1276  25087.1  158.655
 3.3256  24477.3  156.378
 3.5236  25872.9  160.581
 3.7216  23854.7  155.445
 3.9196  23277.4  152.775
 4.1176  23311.7  152.661
 4.3156  24108.2  155.426
 4.5136  26691.2  162.508
 4.7116  27656  166.559
 4.9096  26899.8  163.701
 5.1076  26732.1  163.768
 5.3056  26548.6  162.925
 5.5036  26638.4  163.116
 5.7016  26828  163.658
 5.8996  27447.1  164.769
 6.0976  28227.1  168.491
 6.2956  28291.5  168.052
 6.4936  29294.6  170.193
 6.6916  29455  171.641
 6.8896  30254.7  173.806
 7.0876  31414.5  177.757
 7.2856  31019.6  175.79
 7.4836  31784.5  177.288
 7.6816  32617  180.108
 7.8796  33162.9  181.621
 8.0776  35652.2  189.315
 8.2756  36750.6  190.835
 8.4736  37141  191.645
 8.6716  36462.2  190.501
 8.8696  37473.1  193.632
 9.0676  36411.6  190.206
 9.2656  35416.2  188.271
 9.4636  34451.5  184.161
 9.6616  33600.9  182.592
 9.8596  33096  180.641
 10.0576  30743.8  174.757
 10.2556  30164.4  173.565
 10.4536  30717.4  174.739
 10.6516  30018.8  172.953
 10.8496  27468.8  164.876
 11.0476  26809.4  162.898
 11.2456  26923.6  163.781
 11.4436  26743.9  162.401
 11.6416  25866.1  160.049
 11.8396  24667  156.506
 12.0376  24326.8  155.077
 12.2356  24157.4  154.938
 12.4336  24051.2  154.146
 12.6316  23600.7  152.948
 12.8296  23958.2  153.714
 13.0276  24188.1  154.675
 13.2256  24092.5  154.726
 13.4236  23961.8  154.075
 13.6216  24464.6  155.68
 13.8196  26885  162.647
 14.0176  23559.3  152.855
 14.2156  23228.4  150.809
 14.4136  22030.3  148.238
 14.6116  21669.2  146.223
 14.8096  20860.6  143.454
 15.0076  20163.2  144.903
 15.2056  19036.5  136.663
 15.4036  18203.2  134.458
 15.6016  18109.4  133.204
 15.7996  17435.5  130.979
 15.9976  17087.1  132.548
 16.1956  16761.6  129.158
 16.3936  16543.1  127.496
 16.5916  16373.9  127.483
 16.7896  16476.8  127.941
 16.9876  16174.6  128.217
 17.1856  15817.8  125.181
 17.3836  15255.4  122.844
 17.5816  15029.8  122.405
 17.7796  15083  122.547
 17.9776  14663.5  121.618
 18.1756  15053  121.959
 18.3736  14996.5  122.215
 18.5716  14383.3  119.448
 18.7696  14271.8  118.545
 18.9676  14165.4  117.903
 19.1656  13776.4  116.864
 19.3636  13725.8  116.84
 19.5616  13708.3  116.925
 19.7596  14123.2  118.085
 19.9576  14690.8  120.479
 20.1556  13670.7  116.742
 20.3536  13408.9  115.006
 20.5516  13223  114.646
 20.7496  13061.6  113.793
 20.9476  13095.1  113.782
 21.1456  12951.4  113.489
 21.3436  12712.6  112.385
 21.5416  12696.4  112.327
 21.7396  12461.3  111.127
 21.9376  12480  110.988
 22.1356  12721.6  112.321
 22.3336  12354.6  110.831
 22.5316  12299.7  110.679
 22.7296  12236.4  109.762
 22.9276  12197.4  110.247
 23.1256  12373.4  110.529
 23.3236  12539  111.832
 23.5216  12505  111.317
 23.7196  12421  111.107
 23.9176  12376.5  110.447
 24.1156  12012.6  109.272
 24.3136  11833.5  109.236
 24.5116  11907.8  109.089
 24.7096  11756  108.213
 24.9076  11589  107.474
 25.1056  11035.6  105.332
 25.3036  10992.1  104.652
 25.5016  11015.4  104.8
 25.6996  10958.9  104.114
 25.8976  11050.2  104.979
 26.0956  10906  104.315
 26.2936  10807.5  103.498
 26.4916  11055.8  104.535
 26.6896  10653  102.917
 26.8876  10689.7  102.951
 27.0856  10395  101.589
 27.2836  10354.3  101.277
 27.4816  10226.8  100.58
 27.6796  10159.4  100.612
 27.8776  10489.5  102.086
 28.0756  9986.51  99.9046
 28.2736  9966.02  99.3889
 28.4716  9920.75  99.2113
 28.6696  9851.37  98.7102
 28.8676  9766.1  98.6349
 29.0656  9628.12  97.9107
 29.2636  9706.13  98.0953
 29.4616  9350.45  96.4746
 29.6596  9278.77  95.6787
 29.8576  9212.95  96.012
 30.0556  9291.93  96.2986
 30.2536  9402.47  96.6666
 30.4516  9574.05  97.1846
 30.6496  9650.48  97.3012
 30.8476  9422.68  96.5905
 31.0456  9395.28  96.4051
 31.2436  9357.72  95.4857
 31.4416  9304.15  95.3794
 31.6396  9350.01  95.6566
 31.8376  9297.05  94.9235
 32.0356  9238.73  95.1876
 32.2336  9113.37  93.9474
 32.4316  8900.1  93.2499
 32.6296  8839.01  92.7701
 32.8276  8901.29  92.8834
 33.0256  8690.06  91.8336
 33.2236  8924.28  93.2098
 33.4216  8744.68  91.9655
 33.6196  8666.84  91.8259
 33.8176  8691.19  92.1381
 34.0156  8610.2  91.3313
 34.2136  8819.77  92.454
 34.4116  8430.09  90.5572
 34.6096  8577.67  91.2243
 34.8076  8492.57  91.1877
 35.0056  8473.43  90.7556
 35.2036  8740.24  92.3931
 35.4016  8324.84  90.0942
 35.5996  8373.11  90.3846
 35.7976  8274.51  90.1178
 35.9956  8478.66  90.882
 36.1936  8388.95  90.2345
 36.3916  8219.05  89.5265
 36.5896  8223.7  90.5213
 36.7876  8173.04  89.6504
 36.9856  8004.4  88.748
 37.1836  7998.38  87.8285
 37.3816  8008.27  88.2453
 37.5796  8040.04  90.1246
 37.7776  8150.09  89.1074
 37.9756  8092.31  88.6738
 38.1736  8264.94  89.8163
 38.3716  8079.93  89.0748
 38.5696  7979.7  88.8844
 38.7676  7917.22  88.0449
 38.9656  7893.81  87.5469
 39.1636  7983.72  88.3194
 39.3616  7918.37  87.8937
 39.5596  7678.26  87.3667
 39.7576  7767.29  87.2811
 39.9556  7740.53  86.7725
 40.1536  7958.2  88.1737
 40.3516  8031.74  88.5985
 40.5496  7823.98  87.697
 40.7476  7929.21  88.2905
 40.9456  7891.98  87.8372
 41.1436  7921.89  87.7254
 41.3416  7899.59  87.9416
 41.5396  7757.31  86.9489
 41.7376  7837.2  87.652
 41.9356  7720.02  86.8589
 42.1336  8023.99  88.6856
 42.3316  7748.88  87.3687
 42.5296  7790.88  87.1257
 42.7276  7892.96  87.932
 42.9256  7784.01  87.1951
 43.1236  7706.59  86.8573
 43.3216  7818.27  87.2371
 43.5196  7679.2  86.5222
 43.7176  7592.91  86.4284
 43.9156  7452.92  85.5516
 44.1136  7401.35  84.8149
 44.3116  7555.53  85.7084
 44.5096  7477.47  85.5676
 44.7076  7485.18  85.5431
 44.9056  7587.71  85.9939
 45.1036  7635.95  85.886
 45.3016  7436.03  85.2529
 45.4996  7470.39  85.3881
 45.6976  7325.93  84.7346
 45.8956  7519.96  85.6537
 46.0936  7730.05  86.5936
 46.2916  7529.75  85.6954
 46.4896  7525.36  85.7026
 46.6876  7313.9  85.1971
 46.8856  7360.53  84.7359
 47.0836  7490.82  85.7309
 47.2816  7274.07  84.3632
 47.4796  7411.45  85.2649
 47.6776  7407.57  86.1918
 47.8756  7388.42  85.2458
 48.0736  7345.04  85.4688
 48.2716  7240  84.6712
 48.4696  7455.4  85.4919
 48.6676  7256.1  84.941
 48.8656  7464.77  85.8686
 49.0636  7453.85  85.7476
 49.2616  7242  84.5723
 49.4596  7173.11  83.7274
 49.6576  7244.34  84.3707
 49.8556  7268.17  84.5286
 50.0536  7253.12  84.8917
 50.2516  7217.28  84.8199
 50.4496  7302.76  84.9676
 50.6476  7184.59  83.956
 50.8456  7206.74  84.1577
 51.0436  6908.96  82.8675
 51.2416  7014.32  83.1701
 51.4396  6884.57  82.797
 51.6376  6872.16  82.5408
 51.8356  7007.18  82.9584
 52.0336  6954.23  83.1697
 52.2316  6970.66  83.6275
 52.4296  6967.29  83.3122
 52.6276  6901.72  83.019
 52.8256  7015.64  83.2585
 53.0236  6931.19  83.3954
 53.2216  7040.92  84.0639
 53.4196  6924.71  83.3006
 53.6176  6876.16  83.4975
 53.8156  6775.51  82.5618
 54.0136  6597.6  81.6548
 54.2116  6812.26  82.6025
 54.4096  6585.56  81.2831
 54.6076  6546.08  81.3895
 54.8056  6470.97  80.6828
 55.0036  6629.2  81.9471
 55.2016  6426.04  80.244
 55.3996  6326.45  79.7064
 55.5976  6420.68  80.4879
 55.7956  6467.57  80.5967
 55.9936  6601.72  81.5444
 56.1916  6368.39  80.132
 56.3896  6252.65  79.3844
 56.5876  6210.31  79.6586
 56.7856  6335.73  79.9587
 56.9836  6315.5  79.5962
 57.1816  6410.72  80.5631
 57.3796  6248.88  79.3547
 57.5776  6269.66  79.3826
 57.7756  6146.24  79.2633
 57.9736  6133.59  78.8322
 58.1716  6049.04  78.5737
 58.3696  5872.03  77.1702
 58.5676  5792.94  76.1386
 58.7656  5962.93  77.9158
 58.9636  5962.75  77.943
 59.1616  5866.87  77.4476
 59.3596  5915.03  77.0405
 59.5576  5950.36  77.3266
 59.7556  5921.44  77.5527
 59.9536  6091.83  78.559
 60.1516  5959.78  78.5462
 60.1996  0.0000000E+00  0.0000000E+00