File: docs/examples/opeando_xrd/IS17_D/Data/IS17_D/17_Da_f00075.xye
# /beamlines/bl04/projects/cycle2025-II/20250340211-lsimonelli/DATA/IS17_D/17_Da_f00075.xye : mythproc.py merge -s 0.006 -l 0.5 -f /beamlines/bl04/inhouse/ff/FlatField/ff_20Nov2024rod8mm60s_17keV.raw -b True -c true -o xye /beamlines/bl04/projects/cycle2025-II/20250340211-lsimonelli/DATA/IS17_D/17_Da_00075.dat
# IsMon = [6771702, 6776264, 6776985]  IsPos = [-1.4999, -2.4884, -3.4988]
# Wave = 0.4962  CalPath /beamlines/bl04/projects/cycle2025-II/20250340211-lsimonelli/DATA/Align/Si_Pos1_25keV_f00001.cal
# Date = 2025-09-24_14:25:42 Dt = 4.8000  Bin = 0.0060  <imon> = 6774984 +/- 2339 (Min/Max) 6771702 / 6776985
# icurr 251.2859  mocoIn 1.7137E-05  mocoOut 0.8037  i15 7.09088e+06  imon 6.77498e+06  i7 6.6667  iEMpd_timer 4.8000  iEMpd_1 3.3349E-08  iEMpd_2 7.9008E-08  iEMpd_3 1.6702E-08  iEMpd_4 4.6793E-08  iEMhp_timer 4.8000  iEMhp_1 4.9082E-06  iEMhp_2 -2.5360E-08  iEMhp_3 -2.5340E-08  iEMhp_4 -2.1713E-08
#      9776
 1.7416  68430.9  261.731
 1.9396  44624.4  211.62
 2.1376  31269.1  177.149
 2.3356  28063.3  167.47
 2.5336  27617.1  166.718
 2.7316  24551.6  157.276
 2.9296  23437  153.824
 3.1276  22887.3  151.579
 3.3256  22809.3  150.979
 3.5236  24558  156.47
 3.7216  22443.6  150.791
 3.9196  22370.9  149.789
 4.1176  21856.1  147.833
 4.3156  23110.9  152.161
 4.5136  26324.4  161.389
 4.7116  26816.5  164.019
 4.9096  26233.1  161.668
 5.1076  25632.2  160.38
 5.3056  25950.5  161.092
 5.5036  25828.8  160.613
 5.7016  25978.3  161.05
 5.8996  26806.7  162.813
 6.0976  27597.2  166.637
 6.2956  28007.4  167.196
 6.4936  28655  168.327
 6.6916  29096.1  170.61
 6.8896  30112.8  173.426
 7.0876  30826.5  176.185
 7.2856  30890.1  175.436
 7.4836  31683.2  177.01
 7.6816  32334  179.349
 7.8796  33675.9  183.007
 8.0776  38278.8  196.132
 8.2756  38313.5  194.803
 8.4736  38145.6  194.184
 8.6716  37126.6  192.209
 8.8696  37968.9  194.872
 9.0676  37447.5  192.899
 9.2656  35242.9  187.814
 9.4636  34789.4  185.006
 9.6616  34098.7  183.942
 9.8596  32791.8  179.86
 10.0576  31215.3  176.142
 10.2556  29869.5  172.742
 10.4536  33567.2  182.697
 10.6516  36450.1  190.611
 10.8496  27919.1  166.218
 11.0476  27715.1  165.633
 11.2456  30876.4  175.4
 11.4436  27003  163.19
 11.6416  26129.9  160.884
 11.8396  24717.2  156.689
 12.0376  24397.8  155.299
 12.2356  26324.3  161.736
 12.4336  25063.5  157.353
 12.6316  23546.7  152.793
 12.8296  24387  155.125
 13.0276  24810.1  156.639
 13.2256  24350.4  155.551
 13.4236  24701.7  156.437
 13.6216  24270.6  155.089
 13.8196  25143  157.609
 14.0176  24250.8  155.072
 14.2156  23658.9  152.211
 14.4136  22080.8  148.406
 14.6116  21900.3  147.014
 14.8096  21260.8  144.831
 15.0076  20309.2  145.372
 15.2056  19697.2  138.997
 15.4036  18818.9  136.685
 15.6016  18411.8  134.293
 15.7996  18199.1  133.791
 15.9976  17208.5  133.031
 16.1956  16767.5  129.212
 16.3936  16519.6  127.432
 16.5916  16689.1  128.721
 16.7896  16498.9  128.045
 16.9876  16206  128.365
 17.1856  16094.1  126.277
 17.3836  15062.4  122.064
 17.5816  15200.6  123.122
 17.7796  15083.8  122.578
 17.9776  15368.6  124.525
 18.1756  16374.4  127.176
 18.3736  16255.9  127.25
 18.5716  14670.6  120.64
 18.7696  14690.2  120.288
 18.9676  14216.6  118.138
 19.1656  14187.5  118.576
 19.3636  14066.4  118.274
 19.5616  14052.7  118.388
 19.7596  14008  117.613
 19.9576  14508.5  119.743
 20.1556  13703.4  116.88
 20.3536  13576.9  115.729
 20.5516  13283.3  114.909
 20.7496  13128.5  114.183
 20.9476  13394.2  115.087
 21.1456  13847.9  117.344
 21.3436  13029.3  113.781
 21.5416  13018.1  113.738
 21.7396  12654  111.977
 21.9376  12971.1  113.131
 22.1356  13060.2  113.648
 22.3336  12846.5  113.002
 22.5316  12916.4  113.388
 22.7296  12683.7  111.728
 22.9276  12484.4  111.519
 23.1256  13034.5  113.423
 23.3236  12409.2  111.235
 23.5216  12448.2  111.067
 23.7196  12437.5  110.95
 23.9176  12357.2  110.371
 24.1156  12225.5  110.247
 24.3136  12011  110.074
 24.5116  12114.4  110.069
 24.7096  12000.9  109.367
 24.9076  11596.3  107.539
 25.1056  11475  107.438
 25.3036  11188.7  105.584
 25.5016  11290.9  106.104
 25.6996  11200.6  105.259
 25.8976  11301.8  106.18
 26.0956  11331  106.331
 26.2936  11037.2  104.588
 26.4916  11093.8  104.73
 26.6896  10846.4  103.862
 26.8876  10664.2  102.843
 27.0856  10742.2  103.266
 27.2836  10482.1  101.899
 27.4816  10510.8  101.975
 27.6796  10296.6  101.302
 27.8776  10598.1  102.638
 28.0756  10316.3  101.544
 28.2736  10275  100.923
 28.4716  10087.4  100.048
 28.6696  10051.2  99.7145
 28.8676  9844.3  99.0256
 29.0656  9804.24  98.8018
 29.2636  9777.87  98.4655
 29.4616  9584.99  97.6608
 29.6596  9766.8  98.147
 29.8576  9611.07  98.0463
 30.0556  9744.96  98.6006
 30.2536  9620.29  97.7657
 30.4516  9594.05  97.3009
 30.6496  9594.95  97.0305
 30.8476  9432.04  96.641
 31.0456  9407.46  96.4826
 31.2436  9321.12  95.3109
 31.4416  9187.91  94.7968
 31.6396  9727.19  97.5918
 31.8376  9445.99  95.7114
 32.0356  9283.9  95.4558
 32.2336  9138.54  94.0969
 32.4316  9146.72  94.5364
 32.6296  9089.79  94.0773
 32.8276  9034.02  93.5635
 33.0256  8963.62  93.2775
 33.2236  8879.12  92.9862
 33.4216  9018.56  93.3955
 33.6196  8889.9  93.019
 33.8176  8954.64  93.5191
 34.0156  8830.5  92.4858
 34.2136  8796.64  92.3559
 34.4116  8707.4  92.0324
 34.6096  8891.41  92.8757
 34.8076  8627.87  91.8988
 35.0056  8703.44  91.9892
 35.2036  8599.49  91.6491
 35.4016  8573.31  91.4262
 35.5996  8489.99  91.0201
 35.7976  8389.7  90.7546
 35.9956  8553.18  91.2715
 36.1936  8416.75  90.415
 36.3916  8355.5  90.2676
 36.5896  8457.12  91.7885
 36.7876  8427.17  91.0205
 36.9856  8243.36  90.0502
 37.1836  8201.18  88.9221
 37.3816  8375.26  90.2279
 37.5796  8168.2  90.8379
 37.7776  8047.23  88.5476
 37.9756  8106.47  88.7462
 38.1736  8377.03  90.4267
 38.3716  8184.71  89.6569
 38.5696  8015.18  89.0985
 38.7676  7824.77  87.5441
 38.9656  7931.78  87.7824
 39.1636  7935.81  88.0746
 39.3616  8012.95  88.4221
 39.5596  7969.74  89.034
 39.7576  7904.12  88.0329
 39.9556  7946.07  87.9159
 40.1536  8076.31  88.8377
 40.3516  8099.38  88.9696
 40.5496  8048.91  88.9578
 40.7476  8010.55  88.7462
 40.9456  8138.34  89.1965
 41.1436  8095.47  88.6884
 41.3416  8090.2  88.9892
 41.5396  8019.23  88.411
 41.7376  8034.32  88.7636
 41.9356  7955.37  88.1833
 42.1336  7967.48  88.4028
 42.3316  7921.8  88.3391
 42.5296  7932.71  87.9185
 42.7276  7936.44  88.1755
 42.9256  7933.4  88.032
 43.1236  7901.78  87.9634
 43.3216  7890.46  87.6485
 43.5196  7673.91  86.5068
 43.7176  7722.47  87.1662
 43.9156  7614.23  86.4575
 44.1136  7647.83  86.2015
 44.3116  7699.3  86.5051
 44.5096  7491.43  85.6327
 44.7076  7558.72  85.9471
 44.9056  7587.8  85.9965
 45.1036  7545.31  85.3808
 45.3016  7426.13  85.202
 45.4996  7465.99  85.3687
 45.6976  7332.96  84.7747
 45.8956  7398.04  84.9713
 46.0936  7515.43  85.6528
 46.2916  7464  85.336
 46.4896  7406.77  85.0394
 46.6876  7220.36  84.6677
 46.8856  7202.4  83.8309
 47.0836  7229.62  84.2369
 47.2816  7093.25  83.31
 47.4796  7172.07  83.8716
 47.6776  7067.09  84.1911
 47.8756  7057.47  83.328
 48.0736  7163.15  84.4041
 48.2716  6927.59  82.8161
 48.4696  7083.79  83.3433
 48.6676  6963.43  83.2154
 48.8656  7055.35  83.4794
 49.0636  7014.64  83.1994
 49.2616  6891.51  82.4906
 49.4596  6981.63  82.5971
 49.6576  6884.18  82.2424
 49.8556  6884.5  82.2684
 50.0536  6797.64  82.1857
 50.2516  6850.74  82.6364
 50.4496  6800.41  81.994
 50.6476  6841.32  81.9258
 50.8456  6780.69  81.6332
 51.0436  6724.48  81.74
 51.2416  6720.5  81.3879
 51.4396  6466.43  80.2297
 51.6376  6512.56  80.3402
 51.8356  6603.29  80.5292
 52.0336  6437.36  80.0263
 52.2316  6418.08  80.2536
 52.4296  6487.14  80.3715
 52.6276  6525.51  80.7206
 52.8256  6542.29  80.3962
 53.0236  6380.03  80.0256
 53.2216  6335.59  79.779
 53.4196  6184.23  78.7454
 53.6176  6207.3  79.3621
 53.8156  6341.2  79.8828
 54.0136  6442.06  80.6783
 54.2116  6286.31  79.3784
 54.4096  6359.64  79.8835
 54.6076  6263.12  79.6259
 54.8056  6207.47  79.059
 55.0036  6109.69  78.8218
 55.2016  6228.44  79.1365
 55.3996  6268.11  79.349
 55.5976  6237.58  79.3383
 55.7956  6224.71  79.0753
 55.9936  6194.8  79.0229
 56.1916  6261.5  79.4655
 56.3896  6222.83  79.2079
 56.5876  6141.65  79.2434
 56.7856  6127.39  78.6374
 56.9836  6116.68  78.359
 57.1816  6183.95  79.163
 57.3796  6123.04  78.5679
 57.5776  6125.27  78.5098
 57.7756  6225.57  79.7951
 57.9736  6082.96  78.5446
 58.1716  6189.46  79.4713
 58.3696  6135.74  78.8765
 58.5676  6265.67  79.1713
 58.7656  6061.09  78.5425
 58.9636  6229.52  79.6587
 59.1616  6182  79.4823
 59.3596  6243.52  79.1283
 59.5576  6325.06  79.701
 59.7556  6139.53  78.945
 59.9536  6352.83  80.201
 60.1516  6170.78  79.9014
 60.1996  0.0000000E+00  0.0000000E+00