File: docs/examples/opeando_xrd/IS17_D/Data/IS17_D/17_Da_f00141.xye
# /beamlines/bl04/projects/cycle2025-II/20250340211-lsimonelli/DATA/IS17_D/17_Da_f00141.xye : mythproc.py merge -s 0.006 -l 0.5 -f /beamlines/bl04/inhouse/ff/FlatField/ff_20Nov2024rod8mm60s_17keV.raw -b True -c true -o xye /beamlines/bl04/projects/cycle2025-II/20250340211-lsimonelli/DATA/IS17_D/17_Da_00141.dat
# IsMon = [6751043, 6752466, 6750060]  IsPos = [-1.4999, -2.4883, -3.4988]
# Wave = 0.4962  CalPath /beamlines/bl04/projects/cycle2025-II/20250340211-lsimonelli/DATA/Align/Si_Pos1_25keV_f00001.cal
# Date = 2025-09-25_08:52:38 Dt = 4.8000  Bin = 0.0060  <imon> = 6751190 +/- 988 (Min/Max) 6750060 / 6752466
# icurr 249.5410  mocoIn 1.7022E-05  mocoOut 0.7987  i15 7.07043e+06  imon 6.75119e+06  i7 7.3333  iEMpd_timer 4.8000  iEMpd_1 3.4526E-08  iEMpd_2 7.9383E-08  iEMpd_3 1.8858E-08  iEMpd_4 4.8515E-08  iEMhp_timer 4.8000  iEMhp_1 4.8746E-06  iEMhp_2 -2.6877E-08  iEMhp_3 -2.3678E-08  iEMhp_4 -2.2471E-08
#      9776
 1.7416  69710.5  264.106
 1.9396  45659.6  214.017
 2.1376  32147.2  179.578
 2.3356  28850.2  169.762
 2.5336  27320.1  165.781
 2.7316  25279  159.564
 2.9296  24144.3  156.112
 3.1276  23531  153.673
 3.3256  23468.5  153.154
 3.5236  25084.9  158.123
 3.7216  23118.5  153.043
 3.9196  22654.7  150.736
 4.1176  22435.7  149.775
 4.3156  23708.3  154.129
 4.5136  26408.2  161.644
 4.7116  27043.4  164.713
 4.9096  26503.8  162.501
 5.1076  26022.3  161.587
 5.3056  26726.6  163.496
 5.5036  26586.2  162.944
 5.7016  27076.4  164.418
 5.8996  27634.8  165.318
 6.0976  28195.9  168.426
 6.2956  28594.2  168.95
 6.4936  29535.1  170.894
 6.6916  29611.3  172.113
 6.8896  30584.8  174.783
 7.0876  31537  178.204
 7.2856  31523.6  177.228
 7.4836  32074.1  178.182
 7.6816  32843.3  180.76
 7.8796  34086.8  184.145
 8.0776  36405.9  191.296
 8.2756  37792.7  193.504
 8.4736  38411.8  194.885
 8.6716  37769.6  193.883
 8.8696  38112.3  195.255
 9.0676  36844  191.337
 9.2656  35569.1  188.68
 9.4636  35481.9  186.847
 9.6616  34707.5  185.585
 9.8596  33351.4  181.366
 10.0576  31460.2  176.808
 10.2556  30487.9  174.501
 10.4536  30740  174.814
 10.6516  31439.3  176.997
 10.8496  28213.5  167.089
 11.0476  27681.2  165.531
 11.2456  27959.9  166.904
 11.4436  27240.4  163.9
 11.6416  26363.5  161.606
 11.8396  25153  158.056
 12.0376  24851.7  156.747
 12.2356  24850.1  157.144
 12.4336  24487.5  155.537
 12.6316  23854.3  153.777
 12.8296  24382.7  155.112
 13.0276  24874.6  156.851
 13.2256  24540.2  156.153
 13.4236  24780.2  156.679
 13.6216  24583.2  156.075
 13.8196  24749  156.366
 14.0176  24149.6  154.749
 14.2156  23442.3  151.51
 14.4136  22528.1  149.907
 14.6116  22130.1  147.784
 14.8096  21538.5  145.781
 15.0076  20390.8  145.65
 15.2056  20132.5  140.54
 15.4036  19174.4  137.992
 15.6016  18717.1  135.414
 15.7996  18421.7  134.627
 15.9976  17588.6  134.487
 16.1956  17176.9  130.779
 16.3936  16723.4  128.215
 16.5916  16433.4  127.733
 16.7896  16468.7  127.926
 16.9876  16376.6  129.036
 17.1856  16089.5  126.253
 17.3836  15582.7  124.149
 17.5816  15364.2  123.767
 17.7796  15044.3  122.402
 17.9776  15110.7  123.479
 18.1756  15396.2  123.326
 18.3736  15281.4  123.377
 18.5716  14716.9  120.829
 18.7696  14643.5  120.09
 18.9676  14385.3  118.838
 19.1656  14289.8  119
 19.3636  14157.3  118.658
 19.5616  14163.9  118.857
 19.7596  14264.9  118.667
 19.9576  15028.9  121.869
 20.1556  14059.9  118.398
 20.3536  13728.8  116.368
 20.5516  13618.6  116.357
 20.7496  13229.8  114.621
 20.9476  13200.7  114.24
 21.1456  13418.5  115.516
 21.3436  13116.8  114.161
 21.5416  12960.7  113.487
 21.7396  12790.6  112.58
 21.9376  12998.9  113.256
 22.1356  12880.1  112.863
 22.3336  12938.8  113.415
 22.5316  12824.6  112.998
 22.7296  12777  112.153
 22.9276  12742.8  112.683
 23.1256  13000.3  113.289
 23.3236  12687.3  112.46
 23.5216  12610.1  111.785
 23.7196  12573  111.572
 23.9176  12348.8  110.327
 24.1156  12271.5  110.455
 24.3136  11967.1  109.859
 24.5116  11859.9  108.893
 24.7096  11715.7  108.046
 24.9076  11469.9  106.933
 25.1056  11205.9  106.159
 25.3036  11273.8  105.987
 25.5016  11189.1  105.621
 25.6996  11166.3  105.1
 25.8976  11023.9  104.863
 26.0956  11115.8  105.321
 26.2936  11055.3  104.669
 26.4916  11123.7  104.871
 26.6896  10815.1  103.708
 26.8876  10624.6  102.647
 27.0856  10749.6  103.303
 27.2836  10533.2  102.207
 27.4816  10568.1  102.249
 27.6796  10453.8  102.076
 27.8776  10316.8  101.262
 28.0756  10270.9  101.322
 28.2736  10097.4  100.045
 28.4716  9963.16  99.4297
 28.6696  10123.1  100.07
 28.8676  9838.71  99.0005
 29.0656  9788.86  98.7386
 29.2636  9743  98.2856
 29.4616  9870.98  99.118
 29.6596  9760.91  98.1284
 29.8576  9496.04  97.4718
 30.0556  9681.74  98.2888
 30.2536  9653.6  97.9462
 30.4516  9693.08  97.8009
 30.6496  9589.38  97.0023
 30.8476  9474.2  96.8575
 31.0456  9470.41  96.7989
 31.2436  9384.43  95.6245
 31.4416  9199.45  94.8494
 31.6396  9519.15  96.5316
 31.8376  9297.88  94.9499
 32.0356  9167.26  94.8367
 32.2336  9125.46  94.0151
 32.4316  9137.84  94.4501
 32.6296  9014.13  93.6863
 32.8276  9077.34  93.7843
 33.0256  8941.85  93.1632
 33.2236  8989.57  93.5575
 33.4216  8955.17  93.0683
 33.6196  8941.47  93.2894
 33.8176  8915.12  93.316
 34.0156  8791.23  92.281
 34.2136  8731.51  92.0033
 34.4116  8696.47  92.0912
 34.6096  8699  91.8649
 34.8076  8625.97  91.8914
 35.0056  8663.6  91.7805
 35.2036  8561.26  91.4433
 35.4016  8522.47  91.1636
 35.5996  8431.69  90.706
 35.7976  8429.78  90.9724
 35.9956  8542.02  91.213
 36.1936  8395.91  90.3022
 36.3916  8324.79  90.0572
 36.5896  8420.26  91.5912
 36.7876  8392.72  90.8454
 36.9856  8297.35  90.3558
 37.1836  8331.23  89.6344
 37.3816  8341.85  90.0558
 37.5796  8241.72  91.2452
 37.7776  8132.65  89.013
 37.9756  8129.87  88.8862
 38.1736  8308.06  90.0557
 38.3716  8186.18  89.661
 38.5696  8074.7  89.4296
 38.7676  7848.32  87.6714
 38.9656  7989.73  88.0919
 39.1636  7896.22  87.8389
 39.3616  8073.68  88.75
 39.5596  7901.12  88.6531
 39.7576  7870.19  87.8548
 39.9556  8016.03  88.3015
 40.1536  8161.13  89.3021
 40.3516  8077.36  88.8475
 40.5496  8053.23  88.9774
 40.7476  8097.4  89.226
 40.9456  8090.49  88.9375
 41.1436  8032.33  88.3393
 41.3416  7984.15  88.3799
 41.5396  8010.34  88.2944
 41.7376  7999.68  88.5701
 41.9356  7870.78  87.7116
 42.1336  7911.69  88.0864
 42.3316  7904.1  88.2442
 42.5296  7972.88  88.1399
 42.7276  7936.11  88.1765
 42.9256  7914.11  87.9231
 43.1236  7842.38  87.6342
 43.3216  7802.45  87.164
 43.5196  7770.33  87.0436
 43.7176  7662.67  86.8329
 43.9156  7662.86  86.7435
 44.1136  7608.54  85.9901
 44.3116  7664.93  86.3219
 44.5096  7567.21  86.0765
 44.7076  7656.15  86.5124
 44.9056  7468.94  85.319
 45.1036  7412.09  84.6245
 45.3016  7343.69  84.7281
 45.4996  7389.13  84.9278
 45.6976  7366.38  84.9749
 45.8956  7395.56  84.9514
 46.0936  7462.17  85.2823
 46.2916  7307.46  84.4263
 46.4896  7457.31  85.3242
 46.6876  7333.94  85.3244
 46.8856  7224.02  83.943
 47.0836  7153.75  83.7867
 47.2816  7080.03  83.2317
 47.4796  7215.65  84.1353
 47.6776  7060.07  84.1616
 47.8756  7075.14  83.425
 48.0736  7141.02  84.2747
 48.2716  6974.93  83.137
 48.4696  7101.71  83.4773
 48.6676  7003.74  83.4557
 48.8656  7139.23  83.9811
 49.0636  7108.95  83.7448
 49.2616  6877.13  82.3074
 49.4596  6911.29  82.3299
 49.6576  6858.69  82.0945
 49.8556  6818.02  81.8678
 50.0536  6824.09  82.3516
 50.2516  6782.48  82.2331
 50.4496  6783.16  81.8872
 50.6476  6917.69  82.3808
 50.8456  6825.22  81.9124
 51.0436  6675.25  81.4498
 51.2416  6690.1  81.2129
 51.4396  6479.97  80.3204
 51.6376  6540.11  80.5181
 51.8356  6537.56  80.1335
 52.0336  6487.61  80.3329
 52.2316  6485.46  80.6699
 52.4296  6530.14  80.6451
 52.6276  6617.45  81.2864
 52.8256  6585.59  80.6594
 53.0236  6445.17  80.4232
 53.2216  6336  79.7719
 53.4196  6375.29  79.9455
 53.6176  6279.73  79.8147
 53.8156  6423.11  80.3923
 54.0136  6350.79  80.1212
 54.2116  6356.28  79.8105
 54.4096  6313.59  79.5904
 54.6076  6245.35  79.5095
 54.8056  6296.91  79.6266
 55.0036  6270.81  79.8489
 55.2016  6245.61  79.2386
 55.3996  6225.96  79.0844
 55.5976  6310.8  79.8071
 55.7956  6287.9  79.4775
 55.9936  6212.16  79.1343
 56.1916  6254.25  79.4121
 56.3896  6258.45  79.4399
 56.5876  6188  79.542
 56.7856  6174.31  78.9318
 56.9836  6199.02  78.8816
 57.1816  6271.08  79.7183
 57.3796  6174.88  78.9001
 57.5776  6250.24  79.3092
 57.7756  6126.15  79.1584
 57.9736  6183.5  79.1986
 58.1716  6103.76  78.9315
 58.3696  6169.63  79.0963
 58.5676  6241.54  79.0329
 58.7656  6257.54  79.8114
 58.9636  6148.53  79.1471
 59.1616  6239.2  79.854
 59.3596  6238.86  79.1166
 59.5576  6221.46  79.0638
 59.7556  6167  79.1397
 59.9536  6413.05  80.5988
 60.1516  6157.21  79.8319
 60.1996  0.0000000E+00  0.0000000E+00