File: docs/examples/opeando_xrd/IS17_D/Data/IS17_D/17_Db_f00027.xye
# /beamlines/bl04/projects/cycle2025-II/20250340211-lsimonelli/DATA/IS17_D/17_Db_f00027.xye : mythproc.py merge -s 0.006 -l 0.5 -f /beamlines/bl04/inhouse/ff/FlatField/ff_20Nov2024rod8mm60s_17keV.raw -b True -c true -o xye /beamlines/bl04/projects/cycle2025-II/20250340211-lsimonelli/DATA/IS17_D/17_Db_00027.dat
# IsMon = [6739116, 6745802, 6743979]  IsPos = [-1.5001, -2.4885, -3.4988]
# Wave = 0.4962  CalPath /beamlines/bl04/projects/cycle2025-II/20250340211-lsimonelli/DATA/Align/Si_Pos1_25keV_f00001.cal
# Date = 2025-09-24_01:12:41 Dt = 4.8000  Bin = 0.0060  <imon> = 6742966 +/- 2822 (Min/Max) 6739116 / 6745802
# icurr 249.6303  mocoIn 1.7030E-05  mocoOut 0.7989  i15 7.0622e+06  imon 6.74297e+06  i7 5.6667  iEMpd_timer 4.8000  iEMpd_1 3.6070E-08  iEMpd_2 7.6755E-08  iEMpd_3 1.6945E-08  iEMpd_4 4.6723E-08  iEMhp_timer 4.8000  iEMhp_1 4.8769E-06  iEMhp_2 -2.5017E-08  iEMhp_3 -2.4348E-08  iEMhp_4 -2.1180E-08
#      9776
 1.7416  69875.8  264.492
 1.9396  47781.3  219.003
 2.1376  34188.9  184.759
 2.3356  31052.7  176.172
 2.5336  28646  169.803
 2.7316  26333.4  162.878
 2.9296  25351.2  159.973
 3.1276  24740.8  157.587
 3.3256  23970.1  154.752
 3.5236  25680.5  160.148
 3.7216  23343.9  153.765
 3.9196  22929.5  151.614
 4.1176  22967.5  151.545
 4.3156  23793.5  154.402
 4.5136  26343.3  161.44
 4.7116  27262.2  165.365
 4.9096  26609.8  162.812
 5.1076  26542.3  163.2
 5.3056  26584  163.036
 5.5036  26098.3  161.541
 5.7016  26541.4  162.784
 5.8996  27241.4  164.46
 6.0976  27988.6  167.799
 6.2956  28068.8  167.373
 6.4936  28776.2  168.675
 6.6916  29010.3  170.335
 6.8896  29936.4  172.878
 7.0876  31013.7  176.639
 7.2856  30463.4  174.205
 7.4836  30951.6  174.943
 7.6816  31322.6  176.494
 7.8796  32096.3  178.649
 8.0776  33712.3  184.059
 8.2756  35154.6  186.608
 8.4736  35892.3  188.36
 8.6716  35009.2  186.632
 8.8696  35797.2  189.262
 9.0676  34932.5  186.301
 9.2656  33865.3  184.112
 9.4636  32833.7  179.779
 9.6616  32386.2  179.267
 9.8596  31874.9  177.294
 10.0576  29646.6  171.622
 10.2556  29035.1  170.302
 10.4536  28405.8  168.05
 10.6516  27760.2  166.335
 10.8496  26358.5  161.515
 11.0476  25549.6  158.961
 11.2456  24750.6  157.022
 11.4436  25071.6  157.247
 11.6416  24821.1  156.781
 11.8396  23476.8  152.742
 12.0376  23251.7  151.577
 12.2356  23009.1  151.24
 12.4336  22839.6  150.212
 12.6316  22716.5  150.074
 12.8296  22833.9  150.084
 13.0276  23139.7  151.27
 13.2256  23295.7  152.14
 13.4236  23336.5  152.044
 13.6216  23707.1  153.259
 13.8196  25653.3  158.865
 14.0176  22625.6  149.777
 14.2156  22405.5  148.102
 14.4136  21269.4  145.656
 14.6116  20899.1  143.587
 14.8096  20376.1  141.805
 15.0076  19367.6  142.022
 15.2056  18526.9  134.803
 15.4036  17660  132.406
 15.6016  17400.5  130.55
 15.7996  16751.3  128.354
 15.9976  16730.6  131.135
 16.1956  16340.6  127.525
 16.3936  16018.7  125.465
 16.5916  15725.9  124.95
 16.7896  15734.2  125.04
 16.9876  15620.5  125.997
 17.1856  15174.8  122.611
 17.3836  15060.4  122.067
 17.5816  14538.5  120.404
 17.7796  14503.7  120.192
 17.9776  14081.2  119.182
 18.1756  14382  119.213
 18.3736  14335  119.485
 18.5716  13870.7  117.294
 18.7696  13800.2  116.58
 18.9676  13593.2  115.494
 19.1656  13302.2  114.828
 19.3636  13231.5  114.703
 19.5616  13128.4  114.424
 19.7596  13487.6  115.402
 19.9576  13632.5  116.056
 20.1556  13396.6  115.548
 20.3536  12980.1  113.139
 20.5516  12783  112.719
 20.7496  12550.9  111.551
 20.9476  12534.9  111.463
 21.1456  12502.5  111.491
 21.3436  12409.9  111.038
 21.5416  12211.1  110.158
 21.7396  12089.1  109.453
 21.9376  11996.9  108.81
 22.1356  12168.4  109.856
 22.3336  11823.2  108.387
 22.5316  11918.4  108.93
 22.7296  11862  108.054
 22.9276  11878.5  108.783
 23.1256  11886.8  108.311
 23.3236  12180.9  110.232
 23.5216  12125.5  109.623
 23.7196  12079.6  109.584
 23.9176  12141.8  109.413
 24.1156  11850.4  108.532
 24.3136  11563.1  107.991
 24.5116  11489.6  107.165
 24.7096  11309.6  106.149
 24.9076  11108.8  105.251
 25.1056  10758.7  103.747
 25.3036  10538.1  102.467
 25.5016  10626.1  102.931
 25.6996  10628.7  102.537
 25.8976  10609.2  102.875
 26.0956  10410.7  101.913
 26.2936  10368.1  101.366
 26.4916  10785.8  103.255
 26.6896  10368.8  101.537
 26.8876  10266  100.895
 27.0856  10065  99.912
 27.2836  10031.8  99.6882
 27.4816  9867.27  98.7999
 27.6796  9945  99.3245
 27.8776  10042.4  99.9007
 28.0756  9572.77  97.8082
 28.2736  9744.92  98.2785
 28.4716  9508.17  97.1297
 28.6696  9521.81  97.0516
 28.8676  9404.58  96.7954
 29.0656  9308.24  96.2736
 29.2636  9290.57  95.9223
 29.4616  9063.78  94.9664
 29.6596  8960.85  94.0051
 29.8576  8964.5  94.6885
 30.0556  8835.8  93.8909
 30.2536  8978.81  94.4447
 30.4516  9112.7  94.8115
 30.6496  9168.18  94.8477
 30.8476  9052.05  94.6663
 31.0456  9099.13  94.889
 31.2436  8924.01  93.4998
 31.4416  8982.4  93.7322
 31.6396  8869.49  93.1812
 31.8376  8777.83  92.2374
 32.0356  8887.94  93.343
 32.2336  8858.41  92.6446
 32.4316  8667.27  92.019
 32.6296  8524.01  91.0376
 32.8276  8655.35  91.592
 33.0256  8521.59  90.9374
 33.2236  8585.27  91.4193
 33.4216  8510.05  90.7195
 33.6196  8466.1  90.7621
 33.8176  8400.85  90.5703
 34.0156  8440.82  90.4622
 34.2136  8303.76  89.7915
 34.4116  8160.33  89.0955
 34.6096  8234.62  89.3799
 34.8076  8130.53  89.2216
 35.0056  8256.63  89.5847
 35.2036  8341.81  90.2774
 35.4016  8032.62  88.4869
 35.5996  8002.63  88.3634
 35.7976  8013.56  88.6914
 35.9956  8230.77  89.5441
 36.1936  8177.65  89.0944
 36.3916  7991.5  88.2738
 36.5896  7901.85  89.2048
 36.7876  7785.74  87.4787
 36.9856  7615.37  86.5447
 37.1836  7707.79  86.2021
 37.3816  7632.52  86.1367
 37.5796  7741.41  88.4356
 37.7776  7778.68  87.0633
 37.9756  7725.03  86.6273
 38.1736  7805.63  87.2902
 38.3716  7831.21  87.6985
 38.5696  7673.58  87.1665
 38.7676  7568.96  86.104
 38.9656  7578.59  85.7874
 39.1636  7569.9  85.977
 39.3616  7689.76  86.6157
 39.5596  7425.32  85.9252
 39.7576  7555.14  86.0797
 39.9556  7578.4  85.8601
 40.1536  7663.23  86.5307
 40.3516  7644.64  86.4372
 40.5496  7646.42  86.4814
 40.7476  7705.22  87.0353
 40.9456  7586.03  86.1211
 41.1436  7706.75  86.5337
 41.3416  7475.97  85.546
 41.5396  7580.93  85.9532
 41.7376  7563.1  86.1102
 41.9356  7523.83  85.7448
 42.1336  7736.86  87.0987
 42.3316  7509.5  86.002
 42.5296  7651.94  86.344
 42.7276  7536.85  85.9242
 42.9256  7560.56  85.9405
 43.1236  7455.4  85.4374
 43.3216  7603.24  86.1332
 43.5196  7320.77  84.4162
 43.7176  7489.38  85.833
 43.9156  7179.68  83.9518
 44.1136  7243.82  83.8922
 44.3116  7244.97  83.9112
 44.5096  7214.52  84.0371
 44.7076  7232.5  84.0731
 44.9056  7368.24  84.7474
 45.1036  7176.13  83.2699
 45.3016  7244.23  84.153
 45.4996  7379.34  84.872
 45.6976  7086.81  83.3452
 45.8956  7217.34  83.9211
 46.0936  7383.09  84.629
 46.2916  7290.39  84.3253
 46.4896  7316.65  84.5165
 46.6876  7204.76  84.5726
 46.8856  7189.68  83.7403
 47.0836  7180.43  83.9412
 47.2816  7048.38  83.0428
 47.4796  7176.21  83.9008
 47.6776  6980.62  83.6695
 47.8756  7038.55  83.2111
 48.0736  7060.89  83.7924
 48.2716  7013.82  83.3248
 48.4696  7203.35  84.0395
 48.6676  7208.49  84.6625
 48.8656  7147.51  84.0124
 49.0636  7152.13  84.0157
 49.2616  6956.73  82.8834
 49.4596  7060.86  83.0625
 49.6576  7058.82  83.2781
 49.8556  7071.33  83.3763
 50.0536  7088.72  84.0083
 50.2516  6973.3  83.3496
 50.4496  6959.8  82.9468
 50.6476  6944.21  82.5392
 50.8456  7072.22  83.3852
 51.0436  6681.73  81.4783
 51.2416  6728.75  81.4437
 51.4396  6730.41  81.8501
 51.6376  6685.05  81.3894
 51.8356  6719.54  81.2296
 52.0336  6749.41  81.9337
 52.2316  6640.81  81.6288
 52.4296  6652.41  81.4055
 52.6276  6623.12  81.3263
 52.8256  6753.16  81.69
 53.0236  6716.37  82.097
 53.2216  6636.71  81.613
 53.4196  6613.9  81.4125
 53.6176  6765.13  82.8483
 53.8156  6546.93  81.1642
 54.0136  6399.45  80.4135
 54.2116  6526.7  80.849
 54.4096  6267.84  79.2998
 54.6076  6390.84  80.4153
 54.8056  6194.68  78.9586
 55.0036  6429.03  80.6935
 55.2016  6315.42  79.5558
 55.3996  6235.82  79.1298
 55.5976  6214.99  79.1627
 55.7956  6234.38  79.1171
 55.9936  6201.19  79.0442
 56.1916  6115.41  78.5049
 56.3896  6070.86  78.2109
 56.5876  6049.52  78.6134
 56.7856  6000.66  77.816
 56.9836  6162.9  78.6389
 57.1816  6056.74  78.3744
 57.3796  5979.19  77.6096
 57.5776  6099.6  78.281
 57.7756  5914.85  77.7459
 57.9736  5945.9  77.6242
 58.1716  5983.93  78.1438
 58.3696  5733.63  76.2422
 58.5676  5734.44  75.7319
 58.7656  5721.09  76.3032
 58.9636  5674.56  76.0224
 59.1616  5665.49  76.0872
 59.3596  5691.68  75.5556
 59.5576  5785.54  76.2316
 59.7556  5782  76.6175
 59.9536  5770.31  76.4411
 60.1516  5678.95  76.6566
 60.1996  0.0000000E+00  0.0000000E+00