File: docs/examples/opeando_xrd/IS17_D/Data/IS17_D/17_Da_f00058.xye
# /beamlines/bl04/projects/cycle2025-II/20250340211-lsimonelli/DATA/IS17_D/17_Da_f00058.xye : mythproc.py merge -s 0.006 -l 0.5 -f /beamlines/bl04/inhouse/ff/FlatField/ff_20Nov2024rod8mm60s_17keV.raw -b True -c true -o xye /beamlines/bl04/projects/cycle2025-II/20250340211-lsimonelli/DATA/IS17_D/17_Da_00058.dat
# IsMon = [6779911, 6785650, 6785138]  IsPos = [-1.4999, -2.4884, -3.4988]
# Wave = 0.4962  CalPath /beamlines/bl04/projects/cycle2025-II/20250340211-lsimonelli/DATA/Align/Si_Pos1_25keV_f00001.cal
# Date = 2025-09-24_09:41:41 Dt = 4.8000  Bin = 0.0060  <imon> = 6783566 +/- 2593 (Min/Max) 6779911 / 6785650
# icurr 252.2077  mocoIn 1.7211E-05  mocoOut 0.8076  i15 7.10423e+06  imon 6.78357e+06  i7 6.0000  iEMpd_timer 4.8000  iEMpd_1 3.4295E-08  iEMpd_2 7.7337E-08  iEMpd_3 1.7239E-08  iEMpd_4 4.7764E-08  iEMhp_timer 4.8000  iEMhp_1 4.9275E-06  iEMhp_2 -2.5403E-08  iEMhp_3 -2.5648E-08  iEMhp_4 -2.2331E-08
#      9776
 1.7416  70946.5  266.506
 1.9396  46464.1  215.947
 2.1376  33009.9  182.018
 2.3356  29448.1  171.557
 2.5336  27421.7  166.132
 2.7316  25772.4  161.13
 2.9296  24441.5  157.086
 3.1276  24165.9  155.758
 3.3256  23862.8  154.421
 3.5236  25812.4  160.408
 3.7216  23688.7  154.915
 3.9196  23076.2  152.132
 4.1176  23000.1  151.654
 4.3156  24203.5  155.727
 4.5136  26695.7  162.52
 4.7116  27939.1  167.418
 4.9096  27135.6  164.425
 5.1076  26749.3  163.84
 5.3056  27129.6  164.713
 5.5036  26956.1  164.08
 5.7016  27248.1  164.94
 5.8996  27833.1  165.909
 6.0976  28729.2  170.02
 6.2956  29056.8  170.302
 6.4936  29824.4  171.729
 6.6916  30099.8  173.527
 6.8896  31077.2  176.182
 7.0876  32204.6  180.082
 7.2856  32128.2  178.917
 7.4836  32367.8  178.911
 7.6816  33276.5  181.944
 7.8796  34897.8  186.289
 8.0776  36378.8  191.199
 8.2756  38265.5  194.679
 8.4736  38761.1  195.745
 8.6716  38207.7  194.985
 8.8696  37959.9  194.865
 9.0676  37140.6  192.113
 9.2656  36154.3  190.237
 9.4636  35688.7  187.389
 9.6616  35150  186.759
 9.8596  33819.6  182.653
 10.0576  32118.8  178.663
 10.2556  30849  175.541
 10.4536  29859.6  172.31
 10.6516  29112.8  170.336
 10.8496  28185.3  167.012
 11.0476  27412.3  164.723
 11.2456  26787.8  163.364
 11.4436  27265  163.975
 11.6416  26902.5  163.251
 11.8396  25184.6  158.165
 12.0376  25095.1  157.501
 12.2356  24532.1  156.125
 12.4336  24606.4  155.916
 12.6316  24364.1  155.425
 12.8296  24665.6  156.006
 13.0276  25098  157.546
 13.2256  25212.1  158.278
 13.4236  24805.5  156.769
 13.6216  24751.7  156.619
 13.8196  24925.6  156.919
 14.0176  24499.6  155.863
 14.2156  23880.2  152.922
 14.4136  22928  151.231
 14.6116  22703.4  149.679
 14.8096  21884.2  146.942
 15.0076  20700.9  146.78
 15.2056  20294.8  141.087
 15.4036  19382.1  138.717
 15.6016  19222.1  137.214
 15.7996  18476.8  134.809
 15.9976  17726.6  135.028
 16.1956  17295.4  131.234
 16.3936  16852.3  128.713
 16.5916  16806.3  129.177
 16.7896  16562.6  128.296
 16.9876  16611.8  129.96
 17.1856  16269.1  126.958
 17.3836  15815.9  125.093
 17.5816  15338.1  123.674
 17.7796  15138  122.794
 17.9776  14990.8  122.986
 18.1756  15183.3  122.465
 18.3736  14842.9  121.596
 18.5716  14689.3  120.72
 18.7696  14648.5  120.119
 18.9676  14405.5  118.929
 19.1656  14282  118.979
 19.3636  14221.8  118.922
 19.5616  14089.7  118.538
 19.7596  14185.4  118.353
 19.9576  14859.4  121.182
 20.1556  14491.8  120.197
 20.3536  13928  117.215
 20.5516  13600  116.274
 20.7496  13523.4  115.888
 20.9476  13422.6  115.209
 21.1456  13503.7  115.878
 21.3436  13147.9  114.295
 21.5416  13183.5  114.45
 21.7396  12951.3  113.28
 21.9376  12990.4  113.219
 22.1356  12961  113.205
 22.3336  12893.9  113.206
 22.5316  12870  113.178
 22.7296  12864.8  112.519
 22.9276  12866.3  113.214
 23.1256  13088.3  113.656
 23.3236  12911  113.462
 23.5216  12729.6  112.322
 23.7196  12631.5  111.823
 23.9176  12576.3  111.339
 24.1156  12394.8  111.01
 24.3136  11991.4  109.983
 24.5116  12061.4  109.825
 24.7096  11781.5  108.359
 24.9076  11588.8  107.504
 25.1056  11315.2  106.685
 25.3036  11240.7  105.832
 25.5016  11257.4  105.946
 25.6996  11303.3  105.743
 25.8976  11101.4  105.233
 26.0956  11206.4  105.745
 26.2936  11113  104.944
 26.4916  11303.9  105.729
 26.6896  10922.8  104.224
 26.8876  10776  103.381
 27.0856  10866.9  103.856
 27.2836  10582  102.386
 27.4816  10455.9  101.702
 27.6796  10351.9  101.577
 27.8776  10436.1  101.853
 28.0756  10459.7  102.244
 28.2736  10286.5  100.979
 28.4716  10117.6  100.191
 28.6696  10077.7  99.8438
 28.8676  10018  99.8986
 29.0656  9893.95  99.2553
 29.2636  9970.53  99.4294
 29.4616  9831.83  98.9092
 29.6596  9851.57  98.5696
 29.8576  9596.01  97.9709
 30.0556  9757.58  98.6633
 30.2536  9879.5  99.0717
 30.4516  9652.55  97.5989
 30.6496  9668.61  97.4017
 30.8476  9575.97  97.3803
 31.0456  9462.51  96.769
 31.2436  9486.91  96.1557
 31.4416  9280.92  95.2791
 31.6396  9384.14  95.8542
 31.8376  9435.4  95.6589
 32.0356  9276.52  95.4174
 32.2336  9209.6  94.4638
 32.4316  9114.61  94.3677
 32.6296  9135.81  94.3138
 32.8276  9133.3  94.074
 33.0256  9039.92  93.6675
 33.2236  9031.97  93.7844
 33.4216  9127.97  93.9629
 33.6196  9089.19  94.053
 33.8176  9047.64  94.0076
 34.0156  8850.63  92.5866
 34.2136  8910.06  92.9498
 34.4116  8778.67  92.4073
 34.6096  8808.51  92.4472
 34.8076  8729.75  92.4492
 35.0056  8725.48  92.1037
 35.2036  8682.9  92.0955
 35.4016  8597.47  91.5564
 35.5996  8574.63  91.4738
 35.7976  8474.32  91.2093
 35.9956  8587.72  91.4613
 36.1936  8571.25  91.2427
 36.3916  8412.19  90.572
 36.5896  8391.27  91.4311
 36.7876  8328.23  90.4836
 36.9856  8464.36  91.2434
 37.1836  8330.07  89.6165
 37.3816  8371.94  90.2121
 37.5796  8240.7  91.2424
 37.7776  8142.15  89.0774
 37.9756  8163.54  89.0769
 38.1736  8352.14  90.2968
 38.3716  8275.47  90.158
 38.5696  8103.69  89.591
 38.7676  7897.08  87.9523
 38.9656  8057.69  88.4749
 39.1636  7975.75  88.296
 39.3616  7957.73  88.1151
 39.5596  7977.33  89.0735
 39.7576  7950.88  88.3025
 39.9556  7932.84  87.8397
 40.1536  8156.93  89.2764
 40.3516  8150.89  89.2519
 40.5496  8154.56  89.5351
 40.7476  8091.35  89.2011
 40.9456  8200.49  89.5419
 41.1436  8126.97  88.8614
 41.3416  8087.89  88.9781
 41.5396  8008.48  88.3499
 41.7376  8110.57  89.1768
 41.9356  7975.72  88.2948
 42.1336  8073.04  88.9815
 42.3316  7950.4  88.4975
 42.5296  7990.43  88.2359
 42.7276  7959.42  88.307
 42.9256  8030.65  88.5703
 43.1236  7771.21  87.2362
 43.3216  7942.43  87.9372
 43.5196  7753.75  86.9536
 43.7176  7794.92  87.5739
 43.9156  7621.61  86.4939
 44.1136  7684.12  86.4045
 44.3116  7731  86.6773
 44.5096  7678.69  86.6994
 44.7076  7685.58  86.6657
 44.9056  7644  86.317
 45.1036  7549.95  85.4091
 45.3016  7495.64  85.5972
 45.4996  7534.54  85.7628
 45.6976  7338.23  84.8083
 45.8956  7499.68  85.5531
 46.0936  7499.54  85.56
 46.2916  7409.5  85.0232
 46.4896  7517.72  85.676
 46.6876  7446.26  85.9832
 46.8856  7297.56  84.374
 47.0836  7289.88  84.5863
 47.2816  7173.53  83.7793
 47.4796  7267.26  84.4313
 47.6776  7085.01  84.3111
 47.8756  7235.57  84.3619
 48.0736  7198.01  84.6073
 48.2716  6950.48  82.9533
 48.4696  7123.18  83.5787
 48.6676  7138.95  84.2582
 48.8656  7149.22  84.0517
 49.0636  7080.61  83.5898
 49.2616  6905.7  82.5784
 49.4596  7014.57  82.7969
 49.6576  7024.72  83.0856
 49.8556  6917.67  82.4647
 50.0536  6870.55  82.6299
 50.2516  6984.81  83.4459
 50.4496  6884.66  82.4975
 50.6476  6825.23  81.8294
 50.8456  6849.58  82.057
 51.0436  6864.71  82.5873
 51.2416  6787.56  81.7956
 51.4396  6643.28  81.3189
 51.6376  6635.37  81.0948
 51.8356  6661.41  80.886
 52.0336  6508.36  80.4697
 52.2316  6500.56  80.7701
 52.4296  6637.47  81.2954
 52.6276  6538.16  80.8031
 52.8256  6576.55  80.6034
 53.0236  6525.81  80.9332
 53.2216  6395.91  80.1568
 53.4196  6321.78  79.6103
 53.6176  6470.24  81.0246
 53.8156  6482.48  80.7713
 54.0136  6491.12  80.9985
 54.2116  6461.45  80.4756
 54.4096  6277.4  79.3663
 54.6076  6388.16  80.4175
 54.8056  6259.28  79.3888
 55.0036  6320.33  80.1601
 55.2016  6381.57  80.1008
 55.3996  6296.16  79.5244
 55.5976  6223.4  79.2517
 55.7956  6314.02  79.6463
 55.9936  6329.64  79.8844
 56.1916  6338.25  79.9497
 56.3896  6340.42  79.9536
 56.5876  6236.86  79.8547
 56.7856  6185.17  78.9995
 56.9836  6130.62  78.4478
 57.1816  6278.78  79.7697
 57.3796  6235.34  79.2842
 57.5776  6275.18  79.4595
 57.7756  6151.09  79.3177
 57.9736  6218.77  79.4152
 58.1716  6265.73  79.9671
 58.3696  6207.09  79.3304
 58.5676  6226.12  78.9203
 58.7656  6160.89  79.1762
 58.9636  6270.08  79.9165
 59.1616  6134.05  79.1697
 59.3596  6382.03  80.0032
 59.5576  6370.25  79.9877
 59.7556  6300.41  79.9752
 59.9536  6428.26  80.6783
 60.1516  6120.94  79.5806
 60.1996  0.0000000E+00  0.0000000E+00