File: docs/examples/opeando_xrd/IS17_D/Data/IS17_D/17_Db_f00048.xye
# /beamlines/bl04/projects/cycle2025-II/20250340211-lsimonelli/DATA/IS17_D/17_Db_f00048.xye : mythproc.py merge -s 0.006 -l 0.5 -f /beamlines/bl04/inhouse/ff/FlatField/ff_20Nov2024rod8mm60s_17keV.raw -b True -c true -o xye /beamlines/bl04/projects/cycle2025-II/20250340211-lsimonelli/DATA/IS17_D/17_Db_00048.dat
# IsMon = [6770036, 6768014, 6773688]  IsPos = [-1.4999, -2.4884, -3.4986]
# Wave = 0.4962  CalPath /beamlines/bl04/projects/cycle2025-II/20250340211-lsimonelli/DATA/Align/Si_Pos1_25keV_f00001.cal
# Date = 2025-09-24_07:04:35 Dt = 4.8000  Bin = 0.0060  <imon> = 6770579 +/- 2348 (Min/Max) 6768014 / 6773688
# icurr 251.4453  mocoIn 1.7154E-05  mocoOut 0.8058  i15 7.09344e+06  imon 6.77058e+06  i7 4.3333  iEMpd_timer 4.8000  iEMpd_1 3.5440E-08  iEMpd_2 7.8560E-08  iEMpd_3 1.8383E-08  iEMpd_4 4.8619E-08  iEMhp_timer 4.8000  iEMhp_1 4.9140E-06  iEMhp_2 -2.5330E-08  iEMhp_3 -2.2586E-08  iEMhp_4 -2.0255E-08
#      9776
 1.7416  71864.5  268.163
 1.9396  49737  223.375
 2.1376  36940  192.505
 2.3356  32813.6  181.053
 2.5336  30911.6  176.346
 2.7316  28613.3  169.798
 2.9296  27252.2  165.865
 3.1276  26785.2  163.972
 3.3256  25713.8  160.321
 3.5236  27241.9  164.808
 3.7216  24875  158.737
 3.9196  24263.1  155.961
 4.1176  24370.1  156.095
 4.3156  25107  158.6
 4.5136  27421  164.724
 4.7116  28417.5  168.841
 4.9096  27822.3  166.482
 5.1076  27515.6  166.152
 5.3056  27466.7  165.613
 5.5036  27066.9  164.381
 5.7016  27538.5  165.812
 5.8996  28042.3  166.545
 6.0976  29061.8  170.977
 6.2956  29171  170.634
 6.4936  30004  172.23
 6.6916  30498.8  174.659
 6.8896  30983.5  175.885
 7.0876  32020.4  179.563
 7.2856  32094.6  178.803
 7.4836  32674.2  179.748
 7.6816  33349.9  182.119
 7.8796  33871.7  183.546
 8.0776  35591.3  189.142
 8.2756  37105.4  191.72
 8.4736  37930.3  193.661
 8.6716  37105  192.181
 8.8696  37977.1  194.905
 9.0676  37345.6  192.592
 9.2656  35839.8  189.354
 9.4636  35121.3  185.906
 9.6616  34383  184.677
 9.8596  33669.5  182.241
 10.0576  31436.7  176.769
 10.2556  30725.6  175.201
 10.4536  29641.9  171.684
 10.6516  28523.4  168.618
 10.8496  27439.4  164.776
 11.0476  26755.7  162.736
 11.2456  25800.3  160.342
 11.4436  26044  160.26
 11.6416  27622.5  165.404
 11.8396  25092.1  157.849
 12.0376  24623.2  155.997
 12.2356  24142.7  154.902
 12.4336  24244.5  154.763
 12.6316  24228.2  154.977
 12.8296  24185.7  154.447
 13.0276  24522  155.732
 13.2256  24868.7  157.201
 13.4236  25075.2  157.618
 13.6216  24945.1  157.209
 13.8196  27146.9  163.458
 14.0176  23939.6  154.078
 14.2156  23685.1  152.279
 14.4136  22525.4  149.893
 14.6116  22284  148.283
 14.8096  21372.7  145.2
 15.0076  20633.6  146.593
 15.2056  19781.7  139.308
 15.4036  18731.9  136.387
 15.6016  18335.8  134.028
 15.7996  17744.4  132.112
 15.9976  17554.3  134.312
 16.1956  17209.5  130.86
 16.3936  16632.1  127.837
 16.5916  16476.4  127.864
 16.7896  16560.7  128.253
 16.9876  16353.2  128.93
 17.1856  16283.2  127.03
 17.3836  15683.9  124.579
 17.5816  15429.5  124.046
 17.7796  15215.8  123.107
 17.9776  14505.4  120.951
 18.1756  14610.8  120.155
 18.3736  14322.1  119.444
 18.5716  14316.2  119.168
 18.7696  14253.5  118.475
 18.9676  14137.6  117.789
 19.1656  13840.9  117.125
 19.3636  13769.3  117.022
 19.5616  13758  117.144
 19.7596  14021.7  117.656
 19.9576  14044.5  117.8
 20.1556  14769.2  121.335
 20.3536  14357.9  119
 20.5516  13599.2  116.267
 20.7496  13408.3  115.386
 20.9476  13327.4  114.79
 21.1456  13170.5  114.439
 21.3436  12916.3  113.285
 21.5416  12849.5  112.999
 21.7396  12719.3  112.268
 21.9376  12741.5  112.142
 22.1356  12728.5  112.086
 22.3336  12389.6  110.992
 22.5316  12394.1  111.097
 22.7296  12262.4  109.876
 22.9276  12335.9  110.87
 23.1256  12419.5  110.719
 23.3236  12757.1  112.786
 23.5216  12612.5  111.772
 23.7196  12536.7  111.396
 23.9176  12692.7  111.84
 24.1156  12427.3  111.113
 24.3136  12106.9  110.514
 24.5116  12216.1  110.529
 24.7096  11679.3  107.885
 24.9076  11786.7  108.406
 25.1056  11348.1  106.841
 25.3036  11135.1  105.34
 25.5016  11059  105.006
 25.6996  11085.5  104.719
 25.8976  11058.6  105.019
 26.0956  10880  104.181
 26.2936  10897.7  103.934
 26.4916  11147.6  104.974
 26.6896  10856.5  103.908
 26.8876  10692.2  102.964
 27.0856  10452.1  101.875
 27.2836  10390.1  101.605
 27.4816  10352  101.202
 27.6796  10267  101.134
 27.8776  10515.3  102.219
 28.0756  10172.3  100.825
 28.2736  10176.1  100.43
 28.4716  10004.1  99.6283
 28.6696  9981.17  99.3566
 28.8676  9762.77  98.6207
 29.0656  9761.62  98.5827
 29.2636  9812.58  98.6405
 29.4616  9405.07  96.7475
 29.6596  9368.95  96.1366
 29.8576  9277.26  96.3403
 30.0556  9339.24  96.5243
 30.2536  9338.48  96.3328
 30.4516  9680.4  97.6988
 30.6496  9561.44  96.8409
 30.8476  9613.58  97.5541
 31.0456  9563.19  97.2632
 31.2436  9624.3  96.8282
 31.4416  9478.57  96.2919
 31.6396  9479.66  96.3416
 31.8376  9530.37  96.1137
 32.0356  9299.82  95.5093
 32.2336  9386.77  95.3611
 32.4316  8951.76  93.5281
 32.6296  9021.28  93.7236
 32.8276  9082.46  93.8191
 33.0256  8982.9  93.3728
 33.2236  8967.69  93.4389
 33.4216  8887.74  92.7039
 33.6196  8925.28  93.2066
 33.8176  8910.11  93.2841
 34.0156  8824.39  92.4548
 34.2136  8858.99  92.6626
 34.4116  8593.68  91.4344
 34.6096  8613.14  91.4125
 34.8076  8561.36  91.5572
 35.0056  8519.36  91.0041
 35.2036  8880.94  93.1435
 35.4016  8523.76  91.156
 35.5996  8525.35  91.2081
 35.7976  8486.24  91.2758
 35.9956  8486.36  90.9236
 36.1936  8586.66  91.2997
 36.3916  8369.27  90.3381
 36.5896  8319.58  91.0581
 36.7876  8165.44  89.5981
 36.9856  7952.99  88.4551
 37.1836  8042.97  88.0695
 37.3816  8024.74  88.325
 37.5796  8143.01  90.6987
 37.7776  8172.98  89.232
 37.9756  8333.33  89.9838
 38.1736  8257.71  89.7678
 38.3716  8132.47  89.3516
 38.5696  8005.37  89.0278
 38.7676  7767.15  87.2248
 38.9656  8190.13  89.1963
 39.1636  7993.36  88.3897
 39.3616  7997.03  88.3484
 39.5596  7768.5  87.8829
 39.7576  7873.13  87.8712
 39.9556  7946.33  87.9176
 40.1536  8139.65  89.1729
 40.3516  8069.73  88.8947
 40.5496  8017.25  88.7834
 40.7476  8014.47  88.7615
 40.9456  8176.91  89.4065
 41.1436  8082.87  88.6168
 41.3416  7883.29  87.85
 41.5396  8009.94  88.356
 41.7376  8006.74  88.6053
 41.9356  7814.59  87.3947
 42.1336  8060.9  88.8986
 42.3316  7833.54  87.8443
 42.5296  7900.34  87.7325
 42.7276  7870.11  87.8062
 42.9256  7967.66  88.2188
 43.1236  7787.78  87.3202
 43.3216  7889.36  87.6323
 43.5196  7864.62  87.5578
 43.7176  7739.55  87.2513
 43.9156  7545.2  86.0763
 44.1136  7531  85.5483
 44.3116  7709.46  86.5665
 44.5096  7651.88  86.5576
 44.7076  7618.73  86.2983
 44.9056  7769.49  87.0071
 45.1036  7669.56  86.0674
 45.3016  7685.75  86.6627
 45.4996  7601.29  86.1153
 45.6976  7460.51  85.4973
 45.8956  7685.37  86.6084
 46.0936  7704.34  86.717
 46.2916  7504.43  85.5688
 46.4896  7574.63  85.9885
 46.6876  7627.88  87.0245
 46.8856  7462.93  85.4399
 47.0836  7507.51  85.8325
 47.2816  7479.02  85.5505
 47.4796  7580.82  86.2337
 47.6776  7442.26  86.4069
 47.8756  7477.29  85.7663
 48.0736  7479.09  86.225
 48.2716  7388.81  85.5302
 48.4696  7459.39  85.5209
 48.6676  7479.05  86.241
 48.8656  7430.92  85.6842
 49.0636  7570.32  86.4231
 49.2616  7310.06  84.9621
 49.4596  7350.68  84.7584
 49.6576  7437.23  85.4916
 49.8556  7320.39  84.8306
 50.0536  7289.59  85.1035
 50.2516  7368.92  85.7089
 50.4496  7327.95  85.119
 50.6476  7423.32  85.3385
 50.8456  7335.31  84.8995
 51.0436  7207.46  84.6338
 51.2416  7172.3  84.087
 51.4396  6996.27  83.462
 51.6376  7114.95  83.9868
 51.8356  7053.23  83.2372
 52.0336  7017.17  83.5307
 52.2316  7048.41  84.0771
 52.4296  7094.97  84.0529
 52.6276  6944.07  83.266
 52.8256  7169.78  84.1585
 53.0236  7109.72  84.4759
 53.2216  7052.76  84.1739
 53.4196  7100.66  84.3635
 53.6176  6890.29  83.6143
 53.8156  7046.7  84.213
 54.0136  6753  82.6048
 54.2116  6911.6  83.2004
 54.4096  6699.13  81.9857
 54.6076  6644.85  81.9869
 54.8056  6540.14  81.1142
 55.0036  6619.32  82.0212
 55.2016  6782.9  82.5353
 55.3996  6468.53  80.5888
 55.5976  6587.95  81.5153
 55.7956  6493.75  80.7475
 55.9936  6654.48  81.8923
 56.1916  6552.45  81.2749
 56.3896  6288.26  79.6111
 56.5876  6315.19  80.3254
 56.7856  6353.8  80.0723
 56.9836  6457.68  80.4862
 57.1816  6506.82  81.152
 57.3796  6226  79.1869
 57.5776  6282.81  79.4797
 57.7756  6244.87  79.8877
 57.9736  6280.23  79.7661
 58.1716  6181.95  79.4247
 58.3696  6000.9  78.0169
 58.5676  6031.98  77.6947
 58.7656  5964.3  77.9218
 58.9636  6075.83  78.668
 59.1616  6001.66  78.3188
 59.3596  6065.14  77.9833
 59.5576  6105.13  78.2967
 59.7556  5920.98  77.5208
 59.9536  6193.89  79.1849
 60.1516  5899.34  78.1178
 60.1996  0.0000000E+00  0.0000000E+00