File: docs/examples/opeando_xrd/IS17_D/Data/IS17_D/17_Da_f00032.xye
# /beamlines/bl04/projects/cycle2025-II/20250340211-lsimonelli/DATA/IS17_D/17_Da_f00032.xye : mythproc.py merge -s 0.006 -l 0.5 -f /beamlines/bl04/inhouse/ff/FlatField/ff_20Nov2024rod8mm60s_17keV.raw -b True -c true -o xye /beamlines/bl04/projects/cycle2025-II/20250340211-lsimonelli/DATA/IS17_D/17_Da_00032.dat
# IsMon = [6763619, 6759539, 6764271]  IsPos = [-1.5000, -2.4885, -3.4986]
# Wave = 0.4962  CalPath /beamlines/bl04/projects/cycle2025-II/20250340211-lsimonelli/DATA/Align/Si_Pos1_25keV_f00001.cal
# Date = 2025-09-24_02:29:27 Dt = 4.8000  Bin = 0.0060  <imon> = 6762476 +/- 2094 (Min/Max) 6759539 / 6764271
# icurr 250.3482  mocoIn 1.7083E-05  mocoOut 0.8012  i15 7.07652e+06  imon 6.76248e+06  i7 5.3333  iEMpd_timer 4.8000  iEMpd_1 3.6844E-08  iEMpd_2 7.8809E-08  iEMpd_3 1.7542E-08  iEMpd_4 4.8439E-08  iEMhp_timer 4.8000  iEMhp_1 4.8919E-06  iEMhp_2 -2.5700E-08  iEMhp_3 -2.3393E-08  iEMhp_4 -2.1105E-08
#      9776
 1.7416  69874.1  264.391
 1.9396  45182.4  212.872
 2.1376  31854.1  178.74
 2.3356  28280.2  168.061
 2.5336  26265.3  162.533
 2.7316  25111.1  159.049
 2.9296  23804.6  155.027
 3.1276  23296.1  152.905
 3.3256  22998.5  151.617
 3.5236  24973.7  157.94
 3.7216  22743.3  151.793
 3.9196  22472.4  150.127
 4.1176  22402  149.661
 4.3156  23492.7  153.422
 4.5136  26008.8  160.431
 4.7116  27131.5  164.98
 4.9096  26464.3  162.379
 5.1076  26152  161.985
 5.3056  26454.4  162.547
 5.5036  26190.1  161.746
 5.7016  26601.9  162.971
 5.8996  27143.4  163.84
 6.0976  27802.5  167.242
 6.2956  28378.2  168.309
 6.4936  28990.5  169.315
 6.6916  29274.5  171.131
 6.8896  29909.7  172.835
 7.0876  30847.7  176.161
 7.2856  30693  174.875
 7.4836  31063.4  175.264
 7.6816  31756.4  177.744
 7.8796  33189.4  181.713
 8.0776  34608.6  186.522
 8.2756  36355.4  189.781
 8.4736  36966.3  191.194
 8.6716  35942  189.156
 8.8696  35737.5  189.04
 9.0676  35067.6  186.641
 9.2656  33947  184.309
 9.4636  33582.4  181.744
 9.6616  32835.7  180.48
 9.8596  31622.7  176.621
 10.0576  29809.4  172.135
 10.2556  29031.4  170.298
 10.4536  28228.2  167.539
 10.6516  27575.9  165.779
 10.8496  26716.5  162.585
 11.0476  25767.7  159.666
 11.2456  25297.7  158.771
 11.4436  25379.8  158.205
 11.6416  25445.1  158.762
 11.8396  23830.3  153.839
 12.0376  23772.9  153.289
 12.2356  23314.6  152.238
 12.4336  23217.4  151.446
 12.6316  22978.9  150.928
 12.8296  23285.8  151.582
 13.0276  23736.2  153.217
 13.2256  23723.6  153.534
 13.4236  23640.6  153.042
 13.6216  23654.3  153.095
 13.8196  23604.4  152.711
 14.0176  23188.1  151.642
 14.2156  22539.8  148.569
 14.4136  21583  146.727
 14.6116  21321  145.055
 14.8096  20782.4  143.192
 15.0076  19576.2  142.735
 15.2056  19317.8  137.675
 15.4036  18352.7  135.01
 15.6016  17994  132.779
 15.7996  17529.4  131.32
 15.9976  16883.8  131.767
 16.1956  16417.7  127.835
 16.3936  16010  125.432
 16.5916  15652.3  124.638
 16.7896  15586.4  124.434
 16.9876  15692  126.299
 17.1856  15539.8  124.099
 17.3836  15020.6  121.902
 17.5816  14679.1  120.986
 17.7796  14426  119.875
 17.9776  14194.9  119.668
 18.1756  14372.3  119.144
 18.3736  14316.4  119.428
 18.5716  14039.2  118.01
 18.7696  13931.2  117.139
 18.9676  13653  115.772
 19.1656  13585.1  116.032
 19.3636  13548.9  116.083
 19.5616  13400.7  115.608
 19.7596  13553.1  115.675
 19.9576  13713.3  116.413
 20.1556  14063  118.415
 20.3536  13300.6  114.544
 20.5516  13011.4  113.727
 20.7496  12678.2  112.116
 20.9476  12604.4  111.635
 21.1456  12723.6  112.489
 21.3436  12450.5  111.219
 21.5416  12399.8  111.003
 21.7396  12304.9  110.423
 21.9376  12180.4  109.64
 22.1356  12294.5  110.29
 22.3336  12336.9  110.736
 22.5316  12472.4  111.447
 22.7296  12273.4  109.933
 22.9276  12282.7  110.636
 23.1256  12268.2  110.052
 23.3236  12202  110.296
 23.5216  12128.4  109.617
 23.7196  12082.5  109.57
 23.9176  12162.9  109.473
 24.1156  11775.2  108.18
 24.3136  11353.8  107.019
 24.5116  11267  106.148
 24.7096  11247.5  105.877
 24.9076  10993.5  104.69
 25.1056  10895.7  104.423
 25.3036  10737.1  103.443
 25.5016  10744.1  103.504
 25.6996  10669.6  102.737
 25.8976  10521.4  102.441
 26.0956  10614.6  102.914
 26.2936  10597.9  102.493
 26.4916  10645.6  102.604
 26.6896  10330.6  101.362
 26.8876  10307.7  101.104
 27.0856  10314.5  101.156
 27.2836  10027.9  99.8195
 27.4816  10042.5  99.6719
 27.6796  9838.43  99.0251
 27.8776  9898.88  99.1891
 28.0756  9905.78  99.503
 28.2736  9832.87  98.7285
 28.4716  9456.04  96.8637
 28.6696  9573.48  97.3087
 28.8676  9523.01  97.3975
 29.0656  9408.45  96.7913
 29.2636  9407.11  96.4918
 29.4616  9226  95.8308
 29.6596  9465.79  96.6382
 29.8576  9285.63  96.3902
 30.0556  9285.52  96.2591
 30.2536  9204.44  95.6448
 30.4516  9215.44  95.347
 30.6496  9223.64  95.1102
 30.8476  9082.36  94.8222
 31.0456  9113.68  94.9436
 31.2436  9038.35  93.8349
 31.4416  8971.42  93.6761
 31.6396  8985.42  93.7961
 31.8376  8916.26  92.9932
 32.0356  8860.19  93.2521
 32.2336  8682.29  91.7077
 32.4316  8684.59  92.1228
 32.6296  8631.31  91.6047
 32.8276  8675.02  91.6852
 33.0256  8568.08  91.1927
 33.2236  8604.99  91.5321
 33.4216  8635.4  91.3873
 33.6196  8511.32  91.025
 33.8176  8642.23  91.8802
 34.0156  8391.17  90.1554
 34.2136  8403.62  90.2618
 34.4116  8476.91  90.8014
 34.6096  8375.67  90.1432
 34.8076  8202.96  89.6033
 35.0056  8315.84  89.9186
 35.2036  8316.73  90.1204
 35.4016  8278.45  89.8457
 35.5996  8037.8  88.5627
 35.7976  8150.84  89.4617
 35.9956  8216.71  89.4643
 36.1936  8129.44  88.8633
 36.3916  8039.8  88.546
 36.5896  7923.36  89.2967
 36.7876  7995.84  88.674
 36.9856  7964.61  88.5299
 37.1836  7916.75  87.3805
 37.3816  7943.57  87.8832
 37.5796  7919  89.4462
 37.7776  7866.11  87.5338
 37.9756  7769.02  86.8734
 38.1736  7828.88  87.3972
 38.3716  7846.1  87.773
 38.5696  7785  87.8101
 38.7676  7653.21  86.5823
 38.9656  7652.77  86.2214
 39.1636  7662.38  86.4999
 39.3616  7673.17  86.5361
 39.5596  7535.85  86.5801
 39.7576  7663.73  86.6909
 39.9556  7733.75  86.728
 40.1536  7713.1  86.8073
 40.3516  7726.49  86.9801
 40.5496  7770.31  87.189
 40.7476  7676.85  86.8761
 40.9456  7795.86  87.3042
 41.1436  7751.96  86.7819
 41.3416  7767.68  87.2039
 41.5396  7589.34  86.0113
 41.7376  7691.67  86.8468
 41.9356  7500.87  85.6255
 42.1336  7624.2  86.466
 42.3316  7530.41  86.1345
 42.5296  7554.87  85.7996
 42.7276  7597.94  86.2784
 42.9256  7556.33  85.9139
 43.1236  7567.43  86.0843
 43.3216  7558.22  85.8856
 43.5196  7411.73  85.0166
 43.7176  7465.29  85.7074
 43.9156  7364.78  85.046
 44.1136  7415.08  84.8913
 44.3116  7368.88  84.6363
 44.5096  7356.08  84.8714
 44.7076  7231.28  84.0818
 44.9056  7254.64  84.074
 45.1036  7169.84  83.2165
 45.3016  7088.22  83.2236
 45.4996  7138.4  83.4624
 45.6976  7052.03  83.1284
 45.8956  7136.95  83.4611
 46.0936  7211.19  83.658
 46.2916  7128.02  83.3918
 46.4896  7119.85  83.381
 46.6876  7072.06  83.7952
 46.8856  6927.9  82.3189
 47.0836  6891.88  82.2353
 47.2816  6825.34  81.7278
 47.4796  6832.95  81.8647
 47.6776  6775.72  82.437
 47.8756  6922.59  82.5264
 48.0736  6935.88  83.0292
 48.2716  6771.3  81.8839
 48.4696  6818.14  81.7673
 48.6676  6727.74  81.7938
 48.8656  6856.35  82.3046
 49.0636  6704.65  81.3229
 49.2616  6584.95  80.6425
 49.4596  6652.63  80.6283
 49.6576  6590.7  80.4743
 49.8556  6705.42  81.1913
 50.0536  6627.44  81.151
 50.2516  6558.99  80.8405
 50.4496  6612.35  80.8571
 50.6476  6548.59  80.1544
 50.8456  6524.72  80.0979
 51.0436  6425.42  79.9153
 51.2416  6515.36  80.1466
 51.4396  6223.84  78.7213
 51.6376  6294.19  78.9988
 51.8356  6381.24  79.1868
 52.0336  6207.63  78.5736
 52.2316  6179.68  78.7309
 52.4296  6240.59  78.8233
 52.6276  6181.33  78.563
 52.8256  6263.13  78.6485
 53.0236  6115.62  78.3475
 53.2216  6083.51  78.1552
 53.4196  6014.64  77.6568
 53.6176  6046.94  78.3307
 53.8156  6056.74  78.0744
 54.0136  6039.92  78.1327
 54.2116  6008.22  77.5893
 54.4096  6118.84  78.3601
 54.6076  5964.41  77.6998
 54.8056  5972.04  77.5463
 55.0036  6029.06  78.1701
 55.2016  6000.3  77.5925
 55.3996  5984.97  77.5422
 55.5976  5939.25  77.4269
 55.7956  6017.37  77.7512
 55.9936  5949.4  77.4449
 56.1916  5933.01  77.3462
 56.3896  5920.91  77.2715
 56.5876  5979.41  78.1902
 56.7856  5831.5  76.7121
 56.9836  5855.41  76.6566
 57.1816  5913.49  77.4103
 57.3796  5937.49  77.3466
 57.5776  5968.8  77.5082
 57.7756  5914.43  77.7788
 57.9736  5884.38  77.2562
 58.1716  5923.22  77.7476
 58.3696  5861.06  77.1062
 58.5676  5930.87  77.0456
 58.7656  5883.12  77.3882
 58.9636  6058.54  78.5721
 59.1616  5913.28  77.7369
 59.3596  5994.03  77.5322
 59.5576  6037.65  77.8703
 59.7556  5847.3  77.0445
 59.9536  6024.32  78.101
 60.1516  5976.8  78.6366
 60.1996  0.0000000E+00  0.0000000E+00