File: docs/examples/opeando_xrd/IS17_D/Data/IS17_D/17_Da_f00024.xye
# /beamlines/bl04/projects/cycle2025-II/20250340211-lsimonelli/DATA/IS17_D/17_Da_f00024.xye : mythproc.py merge -s 0.006 -l 0.5 -f /beamlines/bl04/inhouse/ff/FlatField/ff_20Nov2024rod8mm60s_17keV.raw -b True -c true -o xye /beamlines/bl04/projects/cycle2025-II/20250340211-lsimonelli/DATA/IS17_D/17_Da_00024.dat
# IsMon = [6742994, 6744592, 6746535]  IsPos = [-1.4999, -2.4885, -3.4986]
# Wave = 0.4962  CalPath /beamlines/bl04/projects/cycle2025-II/20250340211-lsimonelli/DATA/Align/Si_Pos1_25keV_f00001.cal
# Date = 2025-09-24_00:14:50 Dt = 4.8000  Bin = 0.0060  <imon> = 6744707 +/- 1448 (Min/Max) 6742994 / 6746535
# icurr 249.0629  mocoIn 1.7005E-05  mocoOut 0.7970  i15 7.06464e+06  imon 6.74471e+06  i7 4.6667  iEMpd_timer 4.8000  iEMpd_1 3.5164E-08  iEMpd_2 7.7571E-08  iEMpd_3 1.7118E-08  iEMpd_4 4.6716E-08  iEMhp_timer 4.8000  iEMhp_1 4.8691E-06  iEMhp_2 -2.4101E-08  iEMhp_3 -2.3507E-08  iEMhp_4 -2.0574E-08
#      9776
 1.7416  68656  262.131
 1.9396  44361.8  210.983
 2.1376  31010.8  176.394
 2.3356  27777.5  166.596
 2.5336  26845.1  164.352
 2.7316  24690.3  157.719
 2.9296  23421.2  153.774
 3.1276  22831.1  151.382
 3.3256  22544  150.103
 3.5236  24585.1  156.709
 3.7216  22271.2  150.211
 3.9196  22043.7  148.683
 4.1176  21686.1  147.255
 4.3156  23204.8  152.477
 4.5136  25818.1  159.831
 4.7116  26471.1  162.958
 4.9096  26215.2  161.616
 5.1076  25645.1  160.416
 5.3056  26153.4  161.618
 5.5036  25731.3  160.325
 5.7016  26127.8  161.511
 5.8996  26762.7  162.686
 6.0976  27232.1  165.529
 6.2956  27778.7  166.518
 6.4936  28416.1  167.625
 6.6916  28933.1  170.128
 6.8896  29564  171.841
 7.0876  30510.8  175.283
 7.2856  30436.8  174.141
 7.4836  30782  174.477
 7.6816  31643.7  177.424
 7.8796  32818.9  180.674
 8.0776  35171.4  188.015
 8.2756  36225.7  189.427
 8.4736  36620.9  190.277
 8.6716  35921.8  189.08
 8.8696  36023.6  189.822
 9.0676  35259.8  187.171
 9.2656  33825  183.995
 9.4636  33599.5  181.814
 9.6616  32605.5  179.86
 9.8596  31461.6  176.173
 10.0576  29822.1  172.169
 10.2556  28668.9  169.235
 10.4536  29094.4  170.09
 10.6516  29283.7  170.831
 10.8496  26555  162.1
 11.0476  25976.4  160.304
 11.2456  26102.8  161.269
 11.4436  25347.2  158.108
 11.6416  25136.6  157.799
 11.8396  23673.3  153.34
 12.0376  23495.4  152.383
 12.2356  23504.9  152.86
 12.4336  23126.5  151.152
 12.6316  22791.7  150.317
 12.8296  23068.3  150.873
 13.0276  23675.5  153.012
 13.2256  23276.5  152.083
 13.4236  23378.2  152.185
 13.6216  23401.8  152.284
 13.8196  23682.8  152.964
 14.0176  23169.9  151.576
 14.2156  22489.4  148.404
 14.4136  21295.9  145.746
 14.6116  21236.5  144.768
 14.8096  20603.9  142.577
 15.0076  19508.9  142.475
 15.2056  19097.3  136.873
 15.4036  18231.5  134.543
 15.6016  17973.9  132.69
 15.7996  17294.9  130.432
 15.9976  16645.5  130.84
 16.1956  16349.8  127.585
 16.3936  15966.6  125.275
 16.5916  15635.9  124.582
 16.7896  15803.4  125.309
 16.9876  15571.7  125.83
 17.1856  15348.1  123.319
 17.3836  14823.6  121.093
 17.5816  14442.4  120.007
 17.7796  14438.1  119.924
 17.9776  14411.7  120.585
 18.1756  14756.1  120.729
 18.3736  14715.1  121.077
 18.5716  13987.7  117.796
 18.7696  14024.2  117.529
 18.9676  13566  115.405
 19.1656  13617.1  116.163
 19.3636  13479.8  115.786
 19.5616  13296.5  115.158
 19.7596  13607.1  115.9
 19.9576  13931.9  117.34
 20.1556  13585.5  116.381
 20.3536  13205.5  114.127
 20.5516  12818  112.886
 20.7496  12640.7  112.042
 20.9476  12656  111.871
 21.1456  12871.5  113.136
 21.3436  12464.5  111.285
 21.5416  12375.2  110.891
 21.7396  12130  109.634
 21.9376  12213.4  109.784
 22.1356  12412.9  110.671
 22.3336  12376.6  110.902
 22.5316  12379.9  111.023
 22.7296  12298.6  110.032
 22.9276  12013.8  109.405
 23.1256  12472.6  110.952
 23.3236  12148.1  110.056
 23.5216  12115.4  109.571
 23.7196  11898  108.527
 23.9176  12012.6  108.814
 24.1156  11791.7  108.268
 24.3136  11517.8  107.789
 24.5116  11374.9  106.654
 24.7096  11165.8  105.492
 24.9076  10927  104.386
 25.1056  10852.6  104.212
 25.3036  10763.5  103.563
 25.5016  10754.8  103.555
 25.6996  10732.2  103.037
 25.8976  10627.4  102.964
 26.0956  10640  103.035
 26.2936  10522.7  102.124
 26.4916  10625.6  102.505
 26.6896  10197  100.702
 26.8876  10242  100.784
 27.0856  10192.8  100.551
 27.2836  10168.8  100.522
 27.4816  10074.4  99.833
 27.6796  9974.23  99.7058
 27.8776  9945.57  99.4247
 28.0756  9856.95  99.2583
 28.2736  9781.8  98.4716
 28.4716  9637.74  97.791
 28.6696  9605.69  97.4792
 28.8676  9476.55  97.1625
 29.0656  9403.83  96.7673
 29.2636  9363.52  96.2757
 29.4616  9321.02  96.3125
 29.6596  9335.58  95.9609
 29.8576  9272.97  96.3141
 30.0556  9340.29  96.5345
 30.2536  9295.32  96.1049
 30.4516  9114.66  94.8334
 30.6496  9060.16  94.2794
 30.8476  9039.06  94.6053
 31.0456  9036.59  94.5562
 31.2436  8924.29  93.2497
 31.4416  8869.33  93.1369
 31.6396  8969.57  93.7143
 31.8376  8962.13  93.2301
 32.0356  8901.77  93.4657
 32.2336  8720.5  91.9177
 32.4316  8806.98  92.7671
 32.6296  8659.8  91.7565
 32.8276  8802.22  92.3478
 33.0256  8519.16  90.9344
 33.2236  8551.74  91.2515
 33.4216  8708.74  91.7762
 33.6196  8572.31  91.3459
 33.8176  8461.1  90.8999
 34.0156  8467.76  90.561
 34.2136  8371.41  90.0861
 34.4116  8338.03  90.0577
 34.6096  8386.38  90.1949
 34.8076  8313.4  90.2035
 35.0056  8382.61  90.2777
 35.2036  8208.23  89.5356
 35.4016  8197.94  89.406
 35.5996  8117.92  89.0059
 35.7976  8138.1  89.3794
 35.9956  8146.51  89.079
 36.1936  8174.82  89.1058
 36.3916  7988.16  88.2581
 36.5896  8049.5  90.011
 36.7876  8011.46  88.7527
 36.9856  7920.78  88.2669
 37.1836  7855.99  87.0355
 37.3816  7899.1  87.6305
 37.5796  7777.54  88.6456
 37.7776  7724.75  86.746
 37.9756  7768.4  86.8825
 38.1736  8021.27  88.4825
 38.3716  7840.72  87.7518
 38.5696  7648.57  87.0381
 38.7676  7518.22  85.8166
 38.9656  7638.88  86.1448
 39.1636  7571.79  85.9906
 39.3616  7665.29  86.4805
 39.5596  7496.3  86.3431
 39.7576  7502.73  85.7731
 39.9556  7653.82  86.2859
 40.1536  7786.04  87.223
 40.3516  7694.63  86.7988
 40.5496  7669.79  86.6235
 40.7476  7800.42  87.5779
 40.9456  7767.09  87.1393
 41.1436  7731.18  86.6654
 41.3416  7648.26  86.529
 41.5396  7595.77  86.0447
 41.7376  7470.14  85.5837
 41.9356  7609.5  86.2441
 42.1336  7602.3  86.3486
 42.3316  7567.64  86.3447
 42.5296  7682.72  86.5177
 42.7276  7457.33  85.4765
 42.9256  7557.02  85.9147
 43.1236  7579.4  86.1523
 43.3216  7546.85  85.8219
 43.5196  7470.32  85.3506
 43.7176  7398.05  85.3171
 43.9156  7404.87  85.2653
 44.1136  7394.07  84.7641
 44.3116  7270.75  84.0656
 44.5096  7308.47  84.5831
 44.7076  7360.96  84.823
 44.9056  7328.4  84.5095
 45.1036  7125.28  82.9662
 45.3016  7112.62  83.3769
 45.4996  7230.54  84.0081
 45.6976  7074.01  83.2617
 45.8956  7088.79  83.1795
 46.0936  7155.44  83.5735
 46.2916  7132.97  83.4157
 46.4896  7044.1  82.9353
 46.6876  6982.04  83.2483
 46.8856  6890  82.0934
 47.0836  6931.66  82.4758
 47.2816  6838.05  81.7986
 47.4796  6877.44  82.1307
 47.6776  6854.67  82.9182
 47.8756  6798.39  81.7815
 48.0736  6866.79  82.6184
 48.2716  6642.94  81.104
 48.4696  6679.04  80.9321
 48.6676  6728.68  81.795
 48.8656  6751.35  81.6623
 49.0636  6761.02  81.682
 49.2616  6536.03  80.3409
 49.4596  6697.45  80.8995
 49.6576  6619.75  80.6423
 49.8556  6585.86  80.4638
 50.0536  6567.98  80.7809
 50.2516  6570.08  80.9026
 50.4496  6532.34  80.3624
 50.6476  6550.08  80.1643
 50.8456  6470.43  79.7492
 51.0436  6428.38  79.9238
 51.2416  6324.98  78.9636
 51.4396  6184.06  78.4642
 51.6376  6252.92  78.7307
 51.8356  6340.65  78.9219
 52.0336  6109.47  77.9577
 52.2316  6121.27  78.3544
 52.4296  6340.48  79.4597
 52.6276  6137.53  78.2889
 52.8256  6240.56  78.5009
 53.0236  6118.49  78.3679
 53.2216  6090.42  78.2168
 53.4196  5897.06  76.8964
 53.6176  5999.58  78.0229
 53.8156  6143.7  78.6359
 54.0136  6048.21  78.1826
 54.2116  5953.91  77.2487
 54.4096  6058.65  77.9703
 54.6076  5984.33  77.8332
 54.8056  5932.27  77.2872
 55.0036  5999.38  78.1063
 55.2016  5988.49  77.591
 55.3996  6015.19  77.7318
 55.5976  6030.94  78.02
 55.7956  6009.53  77.7037
 55.9936  5971.84  77.5876
 56.1916  5897.3  77.1134
 56.3896  5943.95  77.4173
 56.5876  5880.45  77.5411
 56.7856  5870.69  76.9704
 56.9836  5780.47  76.1669
 57.1816  5919.91  77.4515
 57.3796  5946.7  77.4022
 57.5776  5915.2  77.1541
 57.7756  5841.28  77.2917
 57.9736  5795.57  76.672
 58.1716  5879.44  77.4574
 58.3696  5850.74  77.0246
 58.5676  5879.56  76.7012
 58.7656  5823.78  76.9855
 58.9636  6002.82  78.2017
 59.1616  5788.9  76.9237
 59.3596  6006.89  77.6146
 59.5576  6055.53  77.9853
 59.7556  6029.41  78.2348
 59.9536  5915.7  77.3935
 60.1516  6036.65  79.0292
 60.1996  0.0000000E+00  0.0000000E+00