File: docs/examples/opeando_xrd/IS17_D/Data/IS17_D/17_Da_f00122.xye
# /beamlines/bl04/projects/cycle2025-II/20250340211-lsimonelli/DATA/IS17_D/17_Da_f00122.xye : mythproc.py merge -s 0.006 -l 0.5 -f /beamlines/bl04/inhouse/ff/FlatField/ff_20Nov2024rod8mm60s_17keV.raw -b True -c true -o xye /beamlines/bl04/projects/cycle2025-II/20250340211-lsimonelli/DATA/IS17_D/17_Da_00122.dat
# IsMon = [6725690, 6730876, 6729077]  IsPos = [-1.5000, -2.4884, -3.4988]
# Wave = 0.4962  CalPath /beamlines/bl04/projects/cycle2025-II/20250340211-lsimonelli/DATA/Align/Si_Pos1_25keV_f00001.cal
# Date = 2025-09-25_03:35:32 Dt = 4.8000  Bin = 0.0060  <imon> = 6728548 +/- 2150 (Min/Max) 6725690 / 6730876
# icurr 248.9422  mocoIn 1.6995E-05  mocoOut 0.7971  i15 7.05187e+06  imon 6.72855e+06  i7 9.6667  iEMpd_timer 4.8000  iEMpd_1 3.5072E-08  iEMpd_2 7.8047E-08  iEMpd_3 1.7172E-08  iEMpd_4 4.7292E-08  iEMhp_timer 4.8000  iEMhp_1 4.8668E-06  iEMhp_2 -2.4016E-08  iEMhp_3 -2.5565E-08  iEMhp_4 -2.0882E-08
#      9776
 1.7416  69773.6  264.279
 1.9396  46303.6  215.571
 2.1376  32758.8  181.314
 2.3356  29535.9  171.802
 2.5336  27244.5  165.585
 2.7316  25719.4  160.96
 2.9296  24587.9  157.55
 3.1276  24215.2  155.903
 3.3256  23745.9  154.037
 3.5236  25764.8  160.254
 3.7216  23460  154.167
 3.9196  22983.8  151.824
 4.1176  22864.3  151.203
 4.3156  23965.1  154.961
 4.5136  26375.5  161.542
 4.7116  27481.4  166.041
 4.9096  26934  163.814
 5.1076  26557.4  163.249
 5.3056  26977.3  164.257
 5.5036  26900.7  163.909
 5.7016  27154.2  164.655
 5.8996  27901.3  166.115
 6.0976  28515.5  169.387
 6.2956  28994.7  170.122
 6.4936  29876.2  171.878
 6.6916  29795.2  172.647
 6.8896  30834.2  175.49
 7.0876  31921.2  179.212
 7.2856  31835.2  178.1
 7.4836  32276.8  178.657
 7.6816  33237.9  181.842
 7.8796  34732.3  185.858
 8.0776  36065.8  190.381
 8.2756  37926.9  193.829
 8.4736  38485.9  195.054
 8.6716  37723.7  193.741
 8.8696  37897.1  194.711
 9.0676  37094.1  191.995
 9.2656  35782.7  189.259
 9.4636  35646.9  187.283
 9.6616  34900.2  186.101
 9.8596  33687  182.288
 10.0576  31767.5  177.681
 10.2556  30583.7  174.779
 10.4536  29532.2  171.357
 10.6516  28877.3  169.635
 10.8496  27903.5  166.17
 11.0476  27418.1  164.74
 11.2456  26719.6  163.153
 11.4436  26989.2  163.141
 11.6416  26739.3  162.754
 11.8396  25146.4  158.041
 12.0376  25035  157.321
 12.2356  24353.6  155.559
 12.4336  24493.1  155.552
 12.6316  24100.5  154.583
 12.8296  24417  155.22
 13.0276  25074.6  157.471
 13.2256  25042.6  157.747
 13.4236  24781.2  156.68
 13.6216  24618.2  156.197
 13.8196  24726.8  156.3
 14.0176  24430.3  155.639
 14.2156  23683.6  152.29
 14.4136  22386.2  149.434
 14.6116  22277.6  148.275
 14.8096  21562.5  145.86
 15.0076  20515  146.102
 15.2056  20281.5  141.046
 15.4036  19323.8  138.505
 15.6016  18879.2  135.987
 15.7996  18274.2  134.074
 15.9976  17700.2  134.929
 16.1956  17160.7  130.723
 16.3936  16830.2  128.63
 16.5916  16719.6  128.842
 16.7896  16611.3  128.482
 16.9876  16394.9  129.108
 17.1856  16203.2  126.702
 17.3836  15654.9  124.442
 17.5816  15251.3  123.316
 17.7796  15237.4  123.193
 17.9776  14972.6  122.914
 18.1756  15021.3  121.821
 18.3736  14877.2  121.734
 18.5716  14694.7  120.74
 18.7696  14676.6  120.233
 18.9676  14406.3  118.93
 19.1656  14331.9  119.183
 19.3636  14191.9  118.795
 19.5616  14118.6  118.666
 19.7596  14314.4  118.885
 19.9576  14735.6  120.674
 20.1556  14612.5  120.696
 20.3536  13934.4  117.24
 20.5516  13749.5  116.915
 20.7496  13241.4  114.586
 20.9476  13313.1  114.73
 21.1456  13297.3  114.989
 21.3436  13138.7  114.259
 21.5416  13012.9  113.7
 21.7396  12975.3  113.388
 21.9376  12997.8  113.256
 22.1356  12884.7  113.034
 22.3336  12823.8  112.9
 22.5316  12951.1  113.552
 22.7296  12827.9  112.372
 22.9276  12766.7  112.769
 23.1256  13060.9  113.541
 23.3236  12942.4  113.603
 23.5216  12731.7  112.332
 23.7196  12657  112.171
 23.9176  12426.7  110.682
 24.1156  12422.1  111.127
 24.3136  11920.7  109.654
 24.5116  12059.2  109.811
 24.7096  11829.1  108.574
 24.9076  11477.6  106.982
 25.1056  11311.7  106.664
 25.3036  11192.4  105.604
 25.5016  11203.5  105.692
 25.6996  11200.6  105.257
 25.8976  11123  105.335
 26.0956  11128.3  105.378
 26.2936  11089.3  104.829
 26.4916  11142.1  104.959
 26.6896  10867.7  103.963
 26.8876  10724.4  103.131
 27.0856  10772.2  103.408
 27.2836  10432.1  101.654
 27.4816  10468.8  101.768
 27.6796  10409.4  101.86
 27.8776  10245.8  100.913
 28.0756  10235.1  101.143
 28.2736  10301.7  101.054
 28.4716  9972.93  99.475
 28.6696  10044.3  99.6809
 28.8676  9925.3  99.4356
 29.0656  9781.93  98.6948
 29.2636  9837.62  98.7684
 29.4616  9796.39  98.7335
 29.6596  9789.76  98.2603
 29.8576  9545.95  97.7174
 30.0556  9730.75  98.5319
 30.2536  9801.16  98.682
 30.4516  9665.31  97.6653
 30.6496  9512.99  96.6175
 30.8476  9614.38  97.5792
 31.0456  9456.35  96.7304
 31.2436  9400.64  95.7134
 31.4416  9372.86  95.745
 31.6396  9318.56  95.5142
 31.8376  9295.07  94.9429
 32.0356  9275.81  95.411
 32.2336  9078.88  93.7875
 32.4316  8991.32  93.726
 32.6296  9040.49  93.8213
 32.8276  9073.68  93.7709
 33.0256  8977.38  93.3504
 33.2236  9064.17  93.9495
 33.4216  9117.43  93.9085
 33.6196  8864.34  92.884
 33.8176  9025.41  93.8966
 34.0156  8826.82  92.4634
 34.2136  8786.34  92.2962
 34.4116  8763.8  92.3298
 34.6096  8765.28  92.2105
 34.8076  8629.81  91.9138
 35.0056  8631.34  91.6078
 35.2036  8569.71  91.495
 35.4016  8592.01  91.5235
 35.5996  8537.9  91.2779
 35.7976  8413.28  90.8803
 35.9956  8495.69  90.9722
 36.1936  8478.02  90.7459
 36.3916  8315.72  90.051
 36.5896  8361.37  91.2719
 36.7876  8267.88  90.1583
 36.9856  8252.86  90.103
 37.1836  8248.85  89.1817
 37.3816  8407.24  90.4017
 37.5796  8188.9  90.9488
 37.7776  8091.21  88.7927
 37.9756  8069.04  88.5579
 38.1736  8224.87  89.5993
 38.3716  8217.85  89.8458
 38.5696  8057.89  89.3367
 38.7676  7920.39  88.0729
 38.9656  7894.36  87.5703
 39.1636  7922.59  87.9967
 39.3616  8056.36  88.6541
 39.5596  7911.63  88.6991
 39.7576  7880.81  87.9054
 39.9556  7980.1  88.1052
 40.1536  8030.65  88.5867
 40.3516  8115.45  89.0595
 40.5496  8088.41  89.1712
 40.7476  8158.52  89.5564
 40.9456  8051.57  88.7233
 41.1436  8083.23  88.6207
 41.3416  8045.06  88.7413
 41.5396  8025.1  88.4421
 41.7376  7894.08  87.9828
 41.9356  7884.19  87.7836
 42.1336  7970.17  88.4157
 42.3316  7950.18  88.4989
 42.5296  7930.93  87.9064
 42.7276  8017.71  88.63
 42.9256  7818.72  87.3911
 43.1236  7796.49  87.3772
 43.3216  7917.55  87.7986
 43.5196  7750.69  86.9367
 43.7176  7774.18  87.4609
 43.9156  7652.06  86.6755
 44.1136  7656.19  86.2491
 44.3116  7698.59  86.4963
 44.5096  7623.44  86.3887
 44.7076  7559.07  85.9535
 44.9056  7615.32  86.1553
 45.1036  7580.96  85.5863
 45.3016  7424.67  85.1969
 45.4996  7390.72  84.9411
 45.6976  7258.94  84.3526
 45.8956  7499.58  85.5506
 46.0936  7352.94  84.468
 46.2916  7401.46  84.9683
 46.4896  7507.31  85.5968
 46.6876  7240.8  84.7751
 46.8856  7154.5  83.5405
 47.0836  7203.81  84.0844
 47.2816  7157.92  83.686
 47.4796  7186.16  83.966
 47.6776  7087.44  84.3199
 47.8756  7110.31  83.6324
 48.0736  7149.8  84.325
 48.2716  6988.41  83.1841
 48.4696  7016.72  82.9519
 48.6676  6988.99  83.3708
 48.8656  7008.92  83.2145
 49.0636  7007.94  83.1603
 49.2616  6909.81  82.6058
 49.4596  6951.83  82.4129
 49.6576  6868.01  82.1502
 49.8556  6815.02  81.8511
 50.0536  6914.51  82.8945
 50.2516  6825.39  82.4929
 50.4496  6782.22  81.8779
 50.6476  6799.77  81.6748
 50.8456  6781.25  81.6489
 51.0436  6686.18  81.5087
 51.2416  6762.34  81.6481
 51.4396  6589.28  80.9887
 51.6376  6626.22  81.0399
 51.8356  6582.64  80.3993
 52.0336  6464.6  80.1979
 52.2316  6564.08  81.1618
 52.4296  6642.15  81.3318
 52.6276  6575.02  81.0313
 52.8256  6608.83  80.7985
 53.0236  6414.65  80.2385
 53.2216  6390.15  80.085
 53.4196  6362.66  79.8645
 53.6176  6312.11  80.0249
 53.8156  6299.72  79.6234
 54.0136  6398.55  80.412
 54.2116  6410.89  80.1588
 54.4096  6393.19  80.0899
 54.6076  6247.07  79.5241
 54.8056  6236.13  79.2418
 55.0036  6288.52  79.8436
 55.2016  6300.12  79.5092
 55.3996  6262.96  79.3187
 55.5976  6204.26  79.135
 55.7956  6346.33  79.8498
 55.9936  6179  78.9243
 56.1916  6181.93  78.9555
 56.3896  6280.82  79.5756
 56.5876  6152.29  79.3097
 56.7856  6188.16  79.0285
 56.9836  6098.25  78.2395
 57.1816  6131.68  78.8295
 57.3796  6182.74  78.9491
 57.5776  6176.37  78.8422
 57.7756  6161.61  79.3815
 57.9736  6120.27  78.7941
 58.1716  6255.39  79.8978
 58.3696  6210.88  79.3574
 58.5676  6195.57  78.7308
 58.7656  6113.67  78.8841
 58.9636  6238.01  79.7161
 59.1616  6170.84  79.3931
 59.3596  6217.47  78.9716
 59.5576  6220.92  79.0507
 59.7556  6202.9  79.36
 59.9536  6359.15  80.2495
 60.1516  6251.35  80.43
 60.1996  0.0000000E+00  0.0000000E+00