File: docs/examples/opeando_xrd/IS17_D/Data/IS17_D/17_Db_f00068.xye
# /beamlines/bl04/projects/cycle2025-II/20250340211-lsimonelli/DATA/IS17_D/17_Db_f00068.xye : mythproc.py merge -s 0.006 -l 0.5 -f /beamlines/bl04/inhouse/ff/FlatField/ff_20Nov2024rod8mm60s_17keV.raw -b True -c true -o xye /beamlines/bl04/projects/cycle2025-II/20250340211-lsimonelli/DATA/IS17_D/17_Db_00068.dat
# IsMon = [6789364, 6790026, 6793505]  IsPos = [-1.4999, -2.4884, -3.4988]
# Wave = 0.4962  CalPath /beamlines/bl04/projects/cycle2025-II/20250340211-lsimonelli/DATA/Align/Si_Pos1_25keV_f00001.cal
# Date = 2025-09-24_12:38:08 Dt = 4.8000  Bin = 0.0060  <imon> = 6790965 +/- 1816 (Min/Max) 6789364 / 6793505
# icurr 252.9199  mocoIn 1.7257E-05  mocoOut 0.8095  i15 7.11466e+06  imon 6.79096e+06  i7 6.6667  iEMpd_timer 4.8000  iEMpd_1 3.1866E-08  iEMpd_2 7.7960E-08  iEMpd_3 1.4975E-08  iEMpd_4 4.6679E-08  iEMhp_timer 4.8000  iEMhp_1 4.9414E-06  iEMhp_2 -2.4260E-08  iEMhp_3 -2.4635E-08  iEMhp_4 -2.2320E-08
#      9776
 1.7416  69717.4  264.147
 1.9396  47932.1  219.311
 2.1376  35162.1  187.83
 2.3356  31346.7  176.974
 2.5336  30158.7  174.199
 2.7316  26668.7  163.922
 2.9296  25319.2  159.867
 3.1276  25011.5  158.437
 3.3256  24350.9  155.993
 3.5236  25748.5  160.209
 3.7216  23687  154.904
 3.9196  23433.5  153.279
 4.1176  23248  152.459
 4.3156  23973.3  154.981
 4.5136  27084.1  163.703
 4.7116  27584.3  166.325
 4.9096  26807.3  163.42
 5.1076  26691.1  163.653
 5.3056  26606.5  163.097
 5.5036  26381.6  162.334
 5.7016  26894.6  163.86
 5.8996  27421.1  164.692
 6.0976  28251.5  168.577
 6.2956  28306.7  168.09
 6.4936  29064.1  169.516
 6.6916  29451.3  171.631
 6.8896  30355.4  174.102
 7.0876  31252.8  177.398
 7.2856  31288.4  176.541
 7.4836  31936.2  177.709
 7.6816  32483.9  179.735
 7.8796  33630.5  182.884
 8.0776  36329.7  191.086
 8.2756  37344.4  192.332
 8.4736  37501.7  192.555
 8.6716  36482.5  190.546
 8.8696  37933.8  194.807
 9.0676  37270.8  192.415
 9.2656  35890.7  189.513
 9.4636  34535.2  184.355
 9.6616  33733.1  182.934
 9.8596  33059.4  180.569
 10.0576  31005.3  175.538
 10.2556  30292.4  173.955
 10.4536  32326.2  179.283
 10.6516  32161.7  179.049
 10.8496  27659.2  165.441
 11.0476  27311.7  164.42
 11.2456  28614.2  168.854
 11.4436  27213.6  163.827
 11.6416  25735.8  159.634
 11.8396  24783.7  156.886
 12.0376  24218.2  154.709
 12.2356  25103.8  157.948
 12.4336  24501.9  155.584
 12.6316  23779.8  153.537
 12.8296  24022.3  153.921
 13.0276  24363.5  155.227
 13.2256  24304.2  155.404
 13.4236  24323.6  155.232
 13.6216  24536.7  155.914
 13.8196  27312.7  163.942
 14.0176  23706.7  153.319
 14.2156  23407.9  151.394
 14.4136  22050.7  148.31
 14.6116  21637.6  146.115
 14.8096  20908.3  143.6
 15.0076  20315.2  145.464
 15.2056  19250.8  137.423
 15.4036  18391.5  135.134
 15.6016  18087.3  133.11
 15.7996  17728.8  132.053
 15.9976  17220.7  133.046
 16.1956  16909.6  129.732
 16.3936  16834.6  128.613
 16.5916  16517.5  128.041
 16.7896  16497.3  128.017
 16.9876  16182.2  128.25
 17.1856  16083.4  126.242
 17.3836  15413  123.492
 17.5816  15361.4  123.767
 17.7796  15100.1  122.641
 17.9776  15022.5  123.096
 18.1756  15701.9  124.561
 18.3736  15500.9  124.259
 18.5716  14509  119.972
 18.7696  14522.1  119.579
 18.9676  14230.5  118.182
 19.1656  13988.3  117.752
 19.3636  13882.8  117.507
 19.5616  13852.2  117.542
 19.7596  14228.3  118.53
 19.9576  14611.9  120.153
 20.1556  13637.3  116.593
 20.3536  13557.7  115.64
 20.5516  13186.4  114.484
 20.7496  13198.6  114.477
 20.9476  13476.9  115.438
 21.1456  13194.1  114.541
 21.3436  12956.4  113.447
 21.5416  12679.5  112.254
 21.7396  12695.4  112.165
 21.9376  12533.1  111.216
 22.1356  12907.2  112.991
 22.3336  12516.2  111.55
 22.5316  12344  110.867
 22.7296  12242  109.785
 22.9276  12247.3  110.468
 23.1256  12566.8  111.371
 23.3236  12582.9  112.02
 23.5216  12527.5  111.409
 23.7196  12515.3  111.305
 23.9176  12443.7  110.742
 24.1156  12189.5  110.061
 24.3136  11992.6  109.986
 24.5116  12115.6  110.069
 24.7096  11853  108.683
 24.9076  11647  107.764
 25.1056  11275.3  106.483
 25.3036  11007.4  104.73
 25.5016  11184.5  105.606
 25.6996  11052.5  104.56
 25.8976  11226  105.81
 26.0956  11064.4  105.063
 26.2936  10995  104.396
 26.4916  11082.8  104.664
 26.6896  10702.3  103.158
 26.8876  10756.9  103.275
 27.0856  10556.9  102.369
 27.2836  10373.6  101.367
 27.4816  10338.1  101.131
 27.6796  10364  101.616
 27.8776  10664.7  102.942
 28.0756  10114.5  100.541
 28.2736  10255.4  100.818
 28.4716  9954.72  99.3883
 28.6696  9976.96  99.3399
 28.8676  9878.61  99.2055
 29.0656  9710.41  98.33
 29.2636  9804.67  98.5985
 29.4616  9543.42  97.4515
 29.6596  9257.8  95.5598
 29.8576  9424.16  97.0912
 30.0556  9456.48  97.1353
 30.2536  9529.76  97.31
 30.4516  9502.56  96.8171
 30.6496  9689.07  97.4887
 30.8476  9452.12  96.7373
 31.0456  9654.3  97.7284
 31.2436  9561.23  96.5067
 31.4416  9157.58  94.645
 31.6396  9675.45  97.3308
 31.8376  9437.86  95.6417
 32.0356  9360.16  95.8166
 32.2336  9341.28  95.1332
 32.4316  8999.79  93.7653
 32.6296  8943.58  93.3153
 32.8276  9092.42  93.8699
 33.0256  8976.9  93.3333
 33.2236  8972.6  93.4619
 33.4216  8918.61  92.867
 33.6196  8806.42  92.5748
 33.8176  8916.02  93.313
 34.0156  8812.34  92.3984
 34.2136  8748.89  92.0871
 34.4116  8512.57  90.9974
 34.6096  8630.99  91.512
 34.8076  8553.37  91.514
 35.0056  8587.99  91.3682
 35.2036  8795.98  92.7
 35.4016  8439.83  90.7157
 35.5996  8459.31  90.8489
 35.7976  8462.17  91.1277
 35.9956  8522.87  91.1182
 36.1936  8437.36  90.5049
 36.3916  8262.46  89.7603
 36.5896  8415.4  91.5828
 36.7876  8197.45  89.7692
 36.9856  7926.18  88.3066
 37.1836  8093.86  88.3429
 37.3816  7967.91  88.0101
 37.5796  8088.03  90.3992
 37.7776  8190.62  89.3335
 37.9756  8197.23  89.2522
 38.1736  8202.09  89.4606
 38.3716  8208.13  89.7568
 38.5696  8011.72  89.0636
 38.7676  7959.2  88.2982
 38.9656  7995.85  88.1218
 39.1636  8089.7  88.9212
 39.3616  7962.84  88.1543
 39.5596  7861.23  88.4093
 39.7576  7888.17  87.9581
 39.9556  7937.81  87.8727
 40.1536  8054.7  88.7136
 40.3516  7970.21  88.2564
 40.5496  8002.15  88.6859
 40.7476  8024.39  88.8177
 40.9456  8072.5  88.8321
 41.1436  8115.52  88.7933
 41.3416  7831.62  87.5534
 41.5396  7939.98  87.9715
 41.7376  7965.89  88.3745
 41.9356  7917.54  87.9645
 42.1336  8079.46  88.9949
 42.3316  7798.24  87.648
 42.5296  7973.78  88.1365
 42.7276  7945.27  88.2256
 42.9256  7934.57  88.0388
 43.1236  7870.08  87.7825
 43.3216  7873.22  87.5418
 43.5196  7721.69  86.7709
 43.7176  7834.8  87.7965
 43.9156  7563.53  86.176
 44.1136  7417.68  84.8978
 44.3116  7603.16  85.9642
 44.5096  7539.54  85.9172
 44.7076  7546.61  85.8867
 44.9056  7748.82  86.896
 45.1036  7640.27  85.9026
 45.3016  7648.68  86.4602
 45.4996  7598.54  86.1124
 45.6976  7480.8  85.6204
 45.8956  7612.46  86.196
 46.0936  7725.39  86.8399
 46.2916  7644.05  86.3431
 46.4896  7649.62  86.405
 46.6876  7489.05  86.2322
 46.8856  7454.85  85.2735
 47.0836  7438.57  85.441
 47.2816  7329.5  84.6888
 47.4796  7457.04  85.5262
 47.6776  7416.14  86.2552
 47.8756  7361.7  85.0965
 48.0736  7411.95  85.8542
 48.2716  7305.18  85.0486
 48.4696  7494.91  85.7291
 48.6676  7324.82  85.3438
 48.8656  7582.87  86.557
 49.0636  7580.05  86.4788
 49.2616  7273.6  84.7524
 49.4596  7378.58  84.9157
 49.6576  7279.74  84.5705
 49.8556  7349.49  85.0008
 50.0536  7275.42  85.0299
 50.2516  7318.55  85.408
 50.4496  7246.17  84.6403
 50.6476  7267.2  84.4333
 50.8456  7319.23  84.8204
 51.0436  7054.99  83.7305
 51.2416  7065.15  83.4549
 51.4396  7017.09  83.5825
 51.6376  6955.6  83.04
 51.8356  7023.99  83.0638
 52.0336  7036.12  83.6567
 52.2316  7026.19  83.9551
 52.4296  6996.12  83.4716
 52.6276  6866.1  82.8007
 52.8256  6988.94  83.0955
 53.0236  7113.34  84.4988
 53.2216  7007.43  83.9031
 53.4196  6987.41  83.6708
 53.6176  6983.93  84.1713
 53.8156  6784.78  82.6379
 54.0136  6699.77  82.2775
 54.2116  6829.77  82.7141
 54.4096  6696.9  81.9545
 54.6076  6610.8  81.7934
 54.8056  6550.28  81.1874
 55.0036  6596.8  81.8804
 55.2016  6655.9  81.7731
 55.3996  6410.69  80.2294
 55.5976  6524.24  81.1231
 55.7956  6444.66  80.4436
 55.9936  6607.96  81.5825
 56.1916  6473.38  80.7885
 56.3896  6309.79  79.7293
 56.5876  6248.18  79.9011
 56.7856  6282.76  79.6289
 56.9836  6419.42  80.2336
 57.1816  6414.64  80.5922
 57.3796  6259.96  79.4252
 57.5776  6278.05  79.4474
 57.7756  6143.82  79.2414
 57.9736  6267.88  79.7098
 58.1716  6204.51  79.5663
 58.3696  5964.05  77.771
 58.5676  6058.96  77.8573
 58.7656  6086.48  78.713
 58.9636  5934.14  77.7485
 59.1616  6005.71  78.3518
 59.3596  6029.48  77.754
 59.5576  5992.21  77.5725
 59.7556  5903.76  77.4113
 59.9536  5960.49  77.6819
 60.1516  5839.95  77.727
 60.1996  0.0000000E+00  0.0000000E+00