File: docs/examples/opeando_xrd/IS17_D/Data/IS17_D/17_Db_f00099.xye
# /beamlines/bl04/projects/cycle2025-II/20250340211-lsimonelli/DATA/IS17_D/17_Db_f00099.xye : mythproc.py merge -s 0.006 -l 0.5 -f /beamlines/bl04/inhouse/ff/FlatField/ff_20Nov2024rod8mm60s_17keV.raw -b True -c true -o xye /beamlines/bl04/projects/cycle2025-II/20250340211-lsimonelli/DATA/IS17_D/17_Db_00099.dat
# IsMon = [6784459, 6790167, 6792703]  IsPos = [-1.4999, -2.4884, -3.4988]
# Wave = 0.4962  CalPath /beamlines/bl04/projects/cycle2025-II/20250340211-lsimonelli/DATA/Align/Si_Pos1_25keV_f00001.cal
# Date = 2025-09-24_21:17:08 Dt = 4.8000  Bin = 0.0060  <imon> = 6789110 +/- 3448 (Min/Max) 6784459 / 6792703
# icurr 252.7054  mocoIn 1.7251E-05  mocoOut 0.8088  i15 7.11057e+06  imon 6.78911e+06  i7 3.6667  iEMpd_timer 4.8000  iEMpd_1 3.3747E-08  iEMpd_2 7.8444E-08  iEMpd_3 1.7416E-08  iEMpd_4 4.9323E-08  iEMhp_timer 4.8000  iEMhp_1 4.9424E-06  iEMhp_2 -2.5058E-08  iEMhp_3 -2.4344E-08  iEMhp_4 -2.2109E-08
#      9776
 1.7416  71244.9  267.086
 1.9396  49314.2  222.497
 2.1376  36288.5  190.857
 2.3356  32808.4  181.094
 2.5336  30284.7  174.602
 2.7316  27872.6  167.589
 2.9296  26787.2  164.456
 3.1276  26057.7  161.745
 3.3256  25619.9  160.014
 3.5236  26832.1  163.547
 3.7216  24587  157.815
 3.9196  23943.9  154.936
 4.1176  23982.5  154.862
 4.3156  24772.4  157.541
 4.5136  27183.4  163.994
 4.7116  28243.1  168.317
 4.9096  27577.9  165.751
 5.1076  27294.9  165.498
 5.3056  27327.6  165.292
 5.5036  27337.1  165.241
 5.7016  27683.3  166.25
 5.8996  28129.2  166.804
 6.0976  29048.1  170.944
 6.2956  28813.4  169.581
 6.4936  29565.2  170.979
 6.6916  30085.9  173.474
 6.8896  30716.8  175.134
 7.0876  31661.4  178.552
 7.2856  31602.7  177.437
 7.4836  32100.3  178.163
 7.6816  32653.6  180.208
 7.8796  33482.6  182.463
 8.0776  34835.5  187.095
 8.2756  36503.7  190.14
 8.4736  37092.2  191.481
 8.6716  36461.2  190.47
 8.8696  37265.5  193.097
 9.0676  36397.7  190.157
 9.2656  35062.6  187.336
 9.4636  34322.2  183.792
 9.6616  33416.8  182.079
 9.8596  32985.5  180.38
 10.0576  30976.3  175.453
 10.2556  29988.7  173.091
 10.4536  28952.6  169.671
 10.6516  27863.3  166.659
 10.8496  27094  163.748
 11.0476  26466.8  161.851
 11.2456  25787.5  160.288
 11.4436  25808.1  159.532
 11.6416  26352.3  161.562
 11.8396  24684.7  156.577
 12.0376  24198  154.644
 12.2356  23705.5  153.485
 12.4336  23692  152.985
 12.6316  23640.6  153.096
 12.8296  23770.2  153.124
 13.0276  24103.7  154.388
 13.2256  24266.6  155.287
 13.4236  24241.2  154.975
 13.6216  24588.1  156.077
 13.8196  26789.9  162.353
 14.0176  23641.3  153.109
 14.2156  23222  150.793
 14.4136  22186.4  148.765
 14.6116  21886.3  146.956
 14.8096  21035.9  144.04
 15.0076  20227.4  145.145
 15.2056  19366.1  137.811
 15.4036  18410.6  135.195
 15.6016  18050.9  132.964
 15.7996  17629.6  131.671
 15.9976  17304  133.351
 16.1956  17084.5  130.388
 16.3936  16525.5  127.437
 16.5916  16419.1  127.67
 16.7896  16253  127.076
 16.9876  16119.4  127.998
 17.1856  16058.4  126.148
 17.3836  15674.9  124.544
 17.5816  15324.6  123.627
 17.7796  15103.5  122.654
 17.9776  14508.4  120.975
 18.1756  14589.3  120.066
 18.3736  14349.5  119.546
 18.5716  14173.8  118.574
 18.7696  14186.3  118.191
 18.9676  14096.3  117.623
 19.1656  13806.1  116.982
 19.3636  13745.2  116.921
 19.5616  13676.7  116.795
 19.7596  13844.3  116.926
 19.9576  14149.9  118.244
 20.1556  14608.7  120.671
 20.3536  13707.8  116.285
 20.5516  13442.4  115.601
 20.7496  13081.5  113.964
 20.9476  13075.8  113.708
 21.1456  12938.2  113.421
 21.3436  12690.9  112.291
 21.5416  12730.5  112.477
 21.7396  12570.4  111.609
 21.9376  12454  110.863
 22.1356  12618.4  111.716
 22.3336  12390.3  110.975
 22.5316  12382.2  111.021
 22.7296  12319.9  110.121
 22.9276  12229.9  110.376
 23.1256  12365.3  110.465
 23.3236  12690.5  112.507
 23.5216  12470.7  111.166
 23.7196  12425.8  110.919
 23.9176  12336.3  110.272
 24.1156  12284.2  110.492
 24.3136  11731.2  108.79
 24.5116  11913.2  109.145
 24.7096  11631.2  107.665
 24.9076  11526.5  107.216
 25.1056  11287.4  106.56
 25.3036  11047.3  104.918
 25.5016  10805.7  103.802
 25.6996  11000.5  104.318
 25.8976  10884.3  104.203
 26.0956  10819.1  103.877
 26.2936  10857.9  103.74
 26.4916  11126.6  104.873
 26.6896  10618.7  102.748
 26.8876  10660.5  102.816
 27.0856  10470.5  101.945
 27.2836  10302.9  101.021
 27.4816  10160.5  100.261
 27.6796  10133.7  100.494
 27.8776  10358.3  101.456
 28.0756  10027.4  100.105
 28.2736  9932.5  99.2218
 28.4716  9850.87  98.8633
 28.6696  9745.79  98.1822
 28.8676  9627.09  97.9307
 29.0656  9641.12  97.9779
 29.2636  9718.89  98.1726
 29.4616  9363.01  96.5159
 29.6596  9399.9  96.2796
 29.8576  9262.94  96.2513
 30.0556  9304.34  96.3421
 30.2536  9419.28  96.732
 30.4516  9566.47  97.1484
 30.6496  9445.12  96.255
 30.8476  9268.37  95.7903
 31.0456  9513.06  97.0215
 31.2436  9517.46  96.3124
 31.4416  9231.13  95.0303
 31.6396  9422.88  96.0552
 31.8376  9285.78  94.8677
 32.0356  9270.74  95.3664
 32.2336  9229.4  94.5717
 32.4316  8809.85  92.7723
 32.6296  8855.55  92.8538
 32.8276  8929.09  93.0227
 33.0256  8846.29  92.657
 33.2236  8953.73  93.3631
 33.4216  8769.73  92.094
 33.6196  8863.49  92.876
 33.8176  8772.34  92.5619
 34.0156  8702.21  91.8215
 34.2136  8723.49  91.9603
 34.4116  8519.08  91.0331
 34.6096  8501.83  90.818
 34.8076  8457  90.9968
 35.0056  8442.42  90.586
 35.2036  8696.47  92.1786
 35.4016  8388.76  90.4351
 35.5996  8380.68  90.4286
 35.7976  8364.08  90.6074
 35.9956  8547.95  91.2444
 36.1936  8315.38  89.8444
 36.3916  8318.08  90.0583
 36.5896  8225.25  90.5434
 36.7876  8079.71  89.1179
 36.9856  7862.03  87.9356
 37.1836  8016.69  87.909
 37.3816  7914.89  87.7083
 37.5796  8053.13  90.2061
 37.7776  8070.08  88.6826
 37.9756  8058.08  88.4989
 38.1736  8083.41  88.8212
 38.3716  8021.5  88.7564
 38.5696  7861.77  88.2305
 38.7676  7780.78  87.3072
 38.9656  7909.67  87.6414
 39.1636  7945.96  88.1385
 39.3616  7834.14  87.4345
 39.5596  7762.2  87.8536
 39.7576  7811.25  87.5276
 39.9556  7910.43  87.7196
 40.1536  7978.74  88.2918
 40.3516  7896.24  87.8432
 40.5496  7895.74  88.104
 40.7476  7984.32  88.5956
 40.9456  7889.22  87.8231
 41.1436  7992.93  88.1198
 41.3416  7792.85  87.3369
 41.5396  7810.91  87.2465
 41.7376  7754.36  87.1951
 41.9356  7784.19  87.2168
 42.1336  8010.06  88.6241
 42.3316  7788.6  87.5868
 42.5296  7902.93  87.7465
 42.7276  7916.02  88.0618
 42.9256  7792.05  87.2399
 43.1236  7804.21  87.4134
 43.3216  7810.22  87.1979
 43.5196  7644.48  86.3334
 43.7176  7605.98  86.5071
 43.9156  7509.57  85.8563
 44.1136  7379.15  84.6697
 44.3116  7484.47  85.284
 44.5096  7431.02  85.2844
 44.7076  7498.26  85.5974
 44.9056  7614.24  86.1457
 45.1036  7508.63  85.1705
 45.3016  7540.03  85.8405
 45.4996  7382.89  84.8914
 45.6976  7369.06  84.9796
 45.8956  7585.14  86.0443
 46.0936  7588.52  86.0722
 46.2916  7456.95  85.2955
 46.4896  7500.85  85.5776
 46.6876  7381.43  85.61
 46.8856  7409.63  85.0187
 47.0836  7422.74  85.3535
 47.2816  7278.77  84.3925
 47.4796  7448.77  85.4814
 47.6776  7257.34  85.3286
 47.8756  7403.77  85.3486
 48.0736  7349.71  85.4923
 48.2716  7188.22  84.3613
 48.4696  7427.9  85.3389
 48.6676  7393.33  85.7493
 48.8656  7376.18  85.3668
 49.0636  7339.94  85.111
 49.2616  7198.19  84.3116
 49.4596  7295.54  84.4347
 49.6576  7178.22  83.9836
 49.8556  7211.19  84.1931
 50.0536  7299.62  85.1664
 50.2516  7337.4  85.5238
 50.4496  7196.34  84.3443
 50.6476  7253.2  84.3527
 50.8456  7254.28  84.4261
 51.0436  7106.96  84.0275
 51.2416  7053.18  83.3766
 51.4396  6891.31  82.8179
 51.6376  7003.74  83.3133
 51.8356  6931.03  82.501
 52.0336  6897.9  82.8261
 52.2316  7005.36  83.8425
 52.4296  6918.91  83.012
 52.6276  6802.68  82.4103
 52.8256  6853.63  82.2909
 53.0236  6980.97  83.7105
 53.2216  6987.6  83.7857
 53.4196  6873.37  82.9973
 53.6176  6799.11  83.0574
 53.8156  6826.68  82.8908
 54.0136  6609.74  81.7234
 54.2116  6711.67  81.9697
 54.4096  6612.91  81.4455
 54.6076  6536.78  81.3251
 54.8056  6423.58  80.4094
 55.0036  6481.16  81.1673
 55.2016  6589.97  81.3585
 55.3996  6438.92  80.4015
 55.5976  6390.23  80.2857
 55.7956  6459.46  80.548
 55.9936  6551.8  81.2465
 56.1916  6372.65  80.1596
 56.3896  6282.59  79.5603
 56.5876  6271.05  80.0549
 56.7856  6189.06  79.0258
 56.9836  6368.82  79.939
 57.1816  6338.76  80.1218
 57.3796  6166.43  78.822
 57.5776  6286.43  79.475
 57.7756  6137.69  79.1958
 57.9736  6258.06  79.6249
 58.1716  6140.99  79.1492
 58.3696  5919.43  77.469
 58.5676  6016.54  77.5764
 58.7656  5795.64  76.7981
 58.9636  5877.36  77.367
 59.1616  5925.9  77.8186
 59.3596  5938.43  77.157
 59.5576  5809.22  76.3729
 59.7556  5735.52  76.2944
 59.9536  5944.77  77.5734
 60.1516  5903.75  78.1443
 60.1996  0.0000000E+00  0.0000000E+00