File: docs/examples/opeando_xrd/IS17_D/Data/IS17_D/17_Da_f00087.xye
# /beamlines/bl04/projects/cycle2025-II/20250340211-lsimonelli/DATA/IS17_D/17_Da_f00087.xye : mythproc.py merge -s 0.006 -l 0.5 -f /beamlines/bl04/inhouse/ff/FlatField/ff_20Nov2024rod8mm60s_17keV.raw -b True -c true -o xye /beamlines/bl04/projects/cycle2025-II/20250340211-lsimonelli/DATA/IS17_D/17_Da_00087.dat
# IsMon = [6772711, 6770045, 6771032]  IsPos = [-1.4999, -2.4884, -3.4988]
# Wave = 0.4962  CalPath /beamlines/bl04/projects/cycle2025-II/20250340211-lsimonelli/DATA/Align/Si_Pos1_25keV_f00001.cal
# Date = 2025-09-24_17:47:14 Dt = 4.8000  Bin = 0.0060  <imon> = 6771263 +/- 1101 (Min/Max) 6770045 / 6772711
# icurr 250.9104  mocoIn 1.7107E-05  mocoOut 0.8030  i15 7.08901e+06  imon 6.77126e+06  i7 7.6667  iEMpd_timer 4.8000  iEMpd_1 3.3588E-08  iEMpd_2 7.8674E-08  iEMpd_3 1.6599E-08  iEMpd_4 4.6594E-08  iEMhp_timer 4.8000  iEMhp_1 4.9004E-06  iEMhp_2 -2.5864E-08  iEMhp_3 -2.4300E-08  iEMhp_4 -2.1453E-08
#      9776
 1.7416  70207.7  265.015
 1.9396  45534.7  213.705
 2.1376  32218  179.754
 2.3356  28881.5  169.834
 2.5336  26785.9  164.132
 2.7316  25458.2  160.136
 2.9296  24186.7  156.255
 3.1276  23720.4  154.288
 3.3256  23597.1  153.565
 3.5236  25227  158.582
 3.7216  23147.2  153.137
 3.9196  22682.7  150.83
 4.1176  22706.7  150.665
 4.3156  24078.6  155.327
 4.5136  26287  161.281
 4.7116  27564.1  166.288
 4.9096  26826  163.487
 5.1076  26432.7  162.852
 5.3056  26910.2  164.052
 5.5036  26893.2  163.895
 5.7016  27399.4  165.397
 5.8996  27953.1  166.266
 6.0976  28502.5  169.336
 6.2956  29141.8  170.564
 6.4936  29550.8  170.945
 6.6916  29724.7  172.444
 6.8896  30670  175.021
 7.0876  31597.7  178.374
 7.2856  31397.2  176.871
 7.4836  31944.3  177.737
 7.6816  32734.4  180.457
 7.8796  34138.9  184.293
 8.0776  35544.6  189.032
 8.2756  37460  192.654
 8.4736  38138.9  194.198
 8.6716  37234.7  192.52
 8.8696  37472.7  193.584
 9.0676  36285.9  189.866
 9.2656  35183.4  187.637
 9.4636  35274  186.291
 9.6616  34278  184.418
 9.8596  32884.9  180.099
 10.0576  31269.4  176.296
 10.2556  30340.6  174.084
 10.4536  29453.2  171.122
 10.6516  28876  169.631
 10.8496  28076.9  166.675
 11.0476  27221.7  164.149
 11.2456  26426.8  162.269
 11.4436  26859  162.745
 11.6416  26198.6  161.099
 11.8396  24818.1  156.992
 12.0376  24710.1  156.297
 12.2356  24154.1  154.934
 12.4336  24121.3  154.363
 12.6316  23702.8  153.279
 12.8296  24090.9  154.18
 13.0276  24518.3  155.726
 13.2256  24562.3  156.227
 13.4236  24536.4  155.912
 13.6216  24441.3  155.621
 13.8196  24359.1  155.132
 14.0176  24065.6  154.486
 14.2156  23455.1  151.556
 14.4136  22480.2  149.747
 14.6116  21935.2  147.131
 14.8096  21462.9  145.527
 15.0076  20251  145.163
 15.2056  20046.1  140.249
 15.4036  19015.6  137.423
 15.6016  18844.2  135.879
 15.7996  18171.2  133.709
 15.9976  17407.3  133.798
 16.1956  16900.5  129.711
 16.3936  16692.5  128.084
 16.5916  16423.3  127.68
 16.7896  16398.3  127.643
 16.9876  16275.9  128.637
 17.1856  15889.9  125.476
 17.3836  15462.2  123.669
 17.5816  15150.3  122.908
 17.7796  14934.7  121.958
 17.9776  14866.3  122.472
 18.1756  15174  122.43
 18.3736  15193.1  123.029
 18.5716  14731.6  120.888
 18.7696  14505.4  119.529
 18.9676  14412.9  118.944
 19.1656  14197.1  118.62
 19.3636  14127.6  118.535
 19.5616  14051.4  118.385
 19.7596  14178.5  118.312
 19.9576  14565.9  119.978
 20.1556  14210.6  119.034
 20.3536  13765  116.522
 20.5516  13439  115.587
 20.7496  13271.6  114.798
 20.9476  13133.6  113.947
 21.1456  13196.3  114.561
 21.3436  12976.2  113.549
 21.5416  13047.8  113.864
 21.7396  12793.3  112.594
 21.9376  12848.6  112.6
 22.1356  12812.2  112.57
 22.3336  12598  111.924
 22.5316  12775.6  112.793
 22.7296  12731.8  111.953
 22.9276  12658.9  112.319
 23.1256  12916.2  112.925
 23.3236  12646.3  112.296
 23.5216  12657.1  111.987
 23.7196  12526.3  111.358
 23.9176  12398.5  110.528
 24.1156  12291.9  110.535
 24.3136  11820.2  109.187
 24.5116  11894.4  109.055
 24.7096  11556.6  107.314
 24.9076  11467.2  106.922
 25.1056  11253.8  106.389
 25.3036  11133.5  105.333
 25.5016  10990.9  104.688
 25.6996  11064.4  104.618
 25.8976  11067.2  105.061
 26.0956  11008.1  104.805
 26.2936  10935.9  104.111
 26.4916  11175.8  105.125
 26.6896  10596.8  102.66
 26.8876  10593.3  102.493
 27.0856  10626.1  102.71
 27.2836  10559.9  102.278
 27.4816  10266.4  100.776
 27.6796  10320.7  101.423
 27.8776  10216.8  100.762
 28.0756  10273.5  101.337
 28.2736  10160.3  100.358
 28.4716  9891.12  99.0641
 28.6696  9975.62  99.338
 28.8676  9910.26  99.3573
 29.0656  9788.05  98.722
 29.2636  9741.98  98.2858
 29.4616  9691.51  98.2188
 29.6596  9786.94  98.2653
 29.8576  9511.65  97.5576
 30.0556  9601.49  97.8848
 30.2536  9593.28  97.6453
 30.4516  9592.2  97.2811
 30.6496  9582.1  96.9571
 30.8476  9567.37  97.3256
 31.0456  9373.07  96.2917
 31.2436  9338.25  95.3771
 31.4416  9169.51  94.6965
 31.6396  9373.75  95.7941
 31.8376  9331.24  95.1219
 32.0356  9133.91  94.6764
 32.2336  8999.6  93.3672
 32.4316  9133.25  94.4693
 32.6296  8927.86  93.239
 32.8276  9029.18  93.5393
 33.0256  9020.65  93.5733
 33.2236  8886.98  93.0184
 33.4216  8967.21  93.1352
 33.6196  8910.81  93.1316
 33.8176  8851.11  92.9861
 34.0156  8786.56  92.2606
 34.2136  8809.75  92.4169
 34.4116  8666.43  91.8156
 34.6096  8581.15  91.245
 34.8076  8530.09  91.3713
 35.0056  8504.63  90.9318
 35.2036  8482.85  91.0194
 35.4016  8508.38  91.0873
 35.5996  8385.12  90.4574
 35.7976  8401  90.8201
 35.9956  8470.92  90.8375
 36.1936  8395.43  90.3034
 36.3916  8297.17  89.9473
 36.5896  8263.22  90.7307
 36.7876  8411.23  90.9504
 36.9856  8212.64  89.8955
 37.1836  8238.89  89.1415
 37.3816  8272.59  89.6875
 37.5796  8171.84  90.8605
 37.7776  8120.15  88.9384
 37.9756  8070.19  88.5467
 38.1736  8107.18  88.9507
 38.3716  8096  89.1655
 38.5696  8000.71  89.0173
 38.7676  7933.57  88.1487
 38.9656  7796.02  87.0185
 39.1636  7790.32  87.2448
 39.3616  7922.05  87.9227
 39.5596  7847.02  88.3348
 39.7576  7779.74  87.345
 39.9556  7947  87.919
 40.1536  8008.22  88.4575
 40.3516  8085.32  88.8939
 40.5496  7943.3  88.373
 40.7476  7985.82  88.6153
 40.9456  8001.8  88.444
 41.1436  7997.05  88.1424
 41.3416  7903.71  87.9657
 41.5396  7948.41  88.0179
 41.7376  7874.51  87.8752
 41.9356  7711.25  86.8203
 42.1336  7875.71  87.8832
 42.3316  7909.23  88.2761
 42.5296  7843.48  87.4205
 42.7276  7868.19  87.7945
 42.9256  7747.48  86.9925
 43.1236  7718.95  86.9402
 43.3216  7803.99  87.1655
 43.5196  7675.52  86.5116
 43.7176  7777.64  87.4808
 43.9156  7665.46  86.7642
 44.1136  7555.89  85.697
 44.3116  7574.28  85.8123
 44.5096  7589.55  86.2069
 44.7076  7423.76  85.1937
 44.9056  7720.24  86.7358
 45.1036  7453.48  84.8517
 45.3016  7363.45  84.8332
 45.4996  7362.1  84.7654
 45.6976  7177.11  83.8675
 45.8956  7444.03  85.2292
 46.0936  7330.54  84.5789
 46.2916  7391.39  84.9117
 46.4896  7402.38  85.0075
 46.6876  7213.52  84.6247
 46.8856  7182.26  83.7001
 47.0836  7147.14  83.7444
 47.2816  7034.57  82.9681
 47.4796  7104.96  83.4802
 47.6776  7045.4  84.0741
 47.8756  7104.89  83.6071
 48.0736  7113.15  84.1061
 48.2716  6924.7  82.8061
 48.4696  7065.56  83.2421
 48.6676  7018.02  83.5417
 48.8656  6991.41  83.1067
 49.0636  6999.92  83.0937
 49.2616  6815.17  82.0491
 49.4596  6943.81  82.3774
 49.6576  6831.47  81.937
 49.8556  6912.91  82.4376
 50.0536  6791.01  82.1441
 50.2516  6779.91  82.2125
 50.4496  6764.92  81.7814
 50.6476  6830.23  81.859
 50.8456  6771.37  81.5817
 51.0436  6609.79  81.0496
 51.2416  6656.84  81.016
 51.4396  6429.54  80.0117
 51.6376  6640.44  81.1373
 51.8356  6533.91  80.1225
 52.0336  6388.14  79.7107
 52.2316  6436.31  80.3514
 52.4296  6519.18  80.5691
 52.6276  6442.75  80.2045
 52.8256  6427.05  79.6679
 53.0236  6273.7  79.3485
 53.2216  6310.77  79.6132
 53.4196  6301.07  79.481
 53.6176  6246.7  79.608
 53.8156  6266.14  79.4058
 54.0136  6319.52  79.9194
 54.2116  6337.7  79.6923
 54.4096  6296.6  79.4924
 54.6076  6177.78  79.0787
 54.8056  6203.36  79.0343
 55.0036  6158.41  79.1342
 55.2016  6198.95  78.9395
 55.3996  6195.1  78.8922
 55.5976  6158.84  78.8365
 55.7956  6250.99  79.2495
 55.9936  6060.18  78.1605
 56.1916  6163.41  78.8403
 56.3896  6209.3  79.1285
 56.5876  6072.23  78.7946
 56.7856  6088.68  78.39
 56.9836  6063.06  78.0056
 57.1816  6173.05  79.0884
 57.3796  6104.96  78.4574
 57.5776  6182.4  78.8825
 57.7756  5995.52  78.303
 57.9736  6060.32  78.4064
 58.1716  6150.84  79.2316
 58.3696  6042.26  78.2805
 58.5676  6188.45  78.7043
 58.7656  6198.32  79.4338
 58.9636  6062.25  78.5975
 59.1616  6142.59  79.2423
 59.3596  6206.23  78.9045
 59.5576  6359  79.9277
 59.7556  6056.86  78.4246
 59.9536  6284.82  79.7837
 60.1516  6129.33  79.6457
 60.1996  0.0000000E+00  0.0000000E+00