File: docs/examples/opeando_xrd/IS17_D/Data/IS17_D/17_Da_f00107.xye
# /beamlines/bl04/projects/cycle2025-II/20250340211-lsimonelli/DATA/IS17_D/17_Da_f00107.xye : mythproc.py merge -s 0.006 -l 0.5 -f /beamlines/bl04/inhouse/ff/FlatField/ff_20Nov2024rod8mm60s_17keV.raw -b True -c true -o xye /beamlines/bl04/projects/cycle2025-II/20250340211-lsimonelli/DATA/IS17_D/17_Da_00107.dat
# IsMon = [6775498, 6779978, 6779728]  IsPos = [-1.4999, -2.4884, -3.4988]
# Wave = 0.4962  CalPath /beamlines/bl04/projects/cycle2025-II/20250340211-lsimonelli/DATA/Align/Si_Pos1_25keV_f00001.cal
# Date = 2025-09-24_23:24:26 Dt = 4.8000  Bin = 0.0060  <imon> = 6778401 +/- 2056 (Min/Max) 6775498 / 6779978
# icurr 251.6229  mocoIn 1.7162E-05  mocoOut 0.8053  i15 7.09677e+06  imon 6.7784e+06  i7 4.3333  iEMpd_timer 4.8000  iEMpd_1 3.4814E-08  iEMpd_2 7.8897E-08  iEMpd_3 1.6285E-08  iEMpd_4 4.8361E-08  iEMhp_timer 4.8000  iEMhp_1 4.9165E-06  iEMhp_2 -2.5349E-08  iEMhp_3 -2.4712E-08  iEMhp_4 -2.0506E-08
#      9776
 1.7416  70649.7  265.933
 1.9396  47135.1  217.498
 2.1376  33946.1  184.571
 2.3356  30839  175.552
 2.5336  28846.8  170.384
 2.7316  27594.9  166.736
 2.9296  26291.6  162.92
 3.1276  25392.3  159.651
 3.3256  25014  158.104
 3.5236  26571.8  162.752
 3.7216  24064.2  156.14
 3.9196  23387.9  153.144
 4.1176  23322.9  152.717
 4.3156  24615.8  157.042
 4.5136  26950.1  163.295
 4.7116  27907.4  167.322
 4.9096  27408.9  165.248
 5.1076  26896.6  164.289
 5.3056  27210.8  164.964
 5.5036  27118.1  164.57
 5.7016  27482  165.645
 5.8996  27995.1  166.387
 6.0976  28529.5  169.428
 6.2956  29189.9  170.692
 6.4936  29992.3  172.197
 6.6916  30222.5  173.881
 6.8896  31160.2  176.417
 7.0876  32026.8  179.583
 7.2856  31987.1  178.525
 7.4836  32449.8  179.139
 7.6816  33214.5  181.77
 7.8796  34752.6  185.905
 8.0776  36153  190.612
 8.2756  37877.6  193.693
 8.4736  38644.1  195.453
 8.6716  37674.3  193.619
 8.8696  37499.8  193.687
 9.0676  37048.7  191.868
 9.2656  35895.7  189.551
 9.4636  35320.5  186.413
 9.6616  34362.3  184.654
 9.8596  33175.2  180.903
 10.0576  31520.4  176.987
 10.2556  30372.7  174.184
 10.4536  29154.2  170.261
 10.6516  28378.8  168.171
 10.8496  27592.1  165.234
 11.0476  26911.4  163.209
 11.2456  26069.7  161.165
 11.4436  25698.8  159.194
 11.6416  27486.6  165.01
 11.8396  24991.8  157.555
 12.0376  25091.4  157.493
 12.2356  24430.4  155.809
 12.4336  24232.5  154.723
 12.6316  23911.7  153.971
 12.8296  24291  154.817
 13.0276  24853.5  156.775
 13.2256  25125.6  158.006
 13.4236  24929.8  157.156
 13.6216  24882.3  157.032
 13.8196  24557.2  155.763
 14.0176  24306.1  155.247
 14.2156  23770.5  152.572
 14.4136  22822  150.879
 14.6116  22309.9  148.382
 14.8096  21784.2  146.608
 15.0076  20561.5  146.279
 15.2056  20440.6  141.598
 15.4036  19198.6  138.068
 15.6016  18996  136.407
 15.7996  18516.4  134.946
 15.9976  17709.2  134.938
 16.1956  17161.2  130.721
 16.3936  16626.4  127.845
 16.5916  16585.6  128.323
 16.7896  16397  127.644
 16.9876  16383.1  129.055
 17.1856  16176.4  126.599
 17.3836  15599.6  124.228
 17.5816  15068.5  122.581
 17.7796  14958.5  122.065
 17.9776  14847.1  122.396
 18.1756  14832.2  121.04
 18.3736  14522.6  120.279
 18.5716  14388.8  119.475
 18.7696  14372.2  118.98
 18.9676  14134.5  117.803
 19.1656  13956.5  117.612
 19.3636  13985.9  117.937
 19.5616  14048.7  118.375
 19.7596  13997.3  117.567
 19.9576  14001.6  117.627
 20.1556  14985.4  122.225
 20.3536  14333.2  118.906
 20.5516  13708.1  116.74
 20.7496  13275  114.817
 20.9476  13249.2  114.458
 21.1456  13353.5  115.235
 21.3436  13001.6  113.659
 21.5416  13050.7  113.869
 21.7396  12884  112.989
 21.9376  12885.8  112.758
 22.1356  12821.7  112.607
 22.3336  12969.2  113.538
 22.5316  12965.9  113.61
 22.7296  12951.8  112.908
 22.9276  12755.2  112.724
 23.1256  12972.7  113.156
 23.3236  12995.3  113.835
 23.5216  12637  111.9
 23.7196  12548.8  111.453
 23.9176  12574.4  111.339
 24.1156  12465.5  111.325
 24.3136  11832  109.248
 24.5116  12074.6  109.885
 24.7096  11664.8  107.821
 24.9076  11416.7  106.696
 25.1056  11144.3  105.876
 25.3036  11153.2  105.418
 25.5016  11159.9  105.486
 25.6996  11136.9  104.96
 25.8976  11049.3  104.989
 26.0956  11128.3  105.376
 26.2936  10973.6  104.286
 26.4916  11070.1  104.626
 26.6896  10826  103.756
 26.8876  10672.8  102.886
 27.0856  10713.8  103.125
 27.2836  10496.9  101.969
 27.4816  10309  100.989
 27.6796  10281.8  101.232
 27.8776  10185.1  100.616
 28.0756  10236.1  101.147
 28.2736  10170.2  100.407
 28.4716  9978.57  99.5068
 28.6696  10091.3  99.9106
 28.8676  9845.21  99.0342
 29.0656  9856.15  99.0692
 29.2636  9840.46  98.7813
 29.4616  9624.65  97.8629
 29.6596  9747.86  98.0527
 29.8576  9548.31  97.7281
 30.0556  9683.51  98.2953
 30.2536  9726.42  98.3046
 30.4516  9589.12  97.2752
 30.6496  9639.11  97.2551
 30.8476  9484.16  96.9103
 31.0456  9466.39  96.7831
 31.2436  9419.11  95.8073
 31.4416  9325.73  95.508
 31.6396  9371.72  95.7899
 31.8376  9391.04  95.4345
 32.0356  9154.63  94.7773
 32.2336  8973.14  93.2403
 32.4316  9056.88  94.0712
 32.6296  9077.41  94.0125
 32.8276  9062.07  93.7128
 33.0256  8968.82  93.299
 33.2236  8996.89  93.5991
 33.4216  9066.25  93.6379
 33.6196  8961.21  93.3912
 33.8176  8962.87  93.5671
 34.0156  8797  92.3132
 34.2136  8843.65  92.6002
 34.4116  8682.47  91.8994
 34.6096  8722.59  91.9847
 34.8076  8646.27  92.0016
 35.0056  8625.06  91.5754
 35.2036  8602.33  91.6634
 35.4016  8746.97  92.3514
 35.5996  8473.59  90.9316
 35.7976  8439.63  91.0232
 35.9956  8606.91  91.5664
 36.1936  8385.99  90.2529
 36.3916  8404.47  90.5249
 36.5896  8363.1  91.2732
 36.7876  8339.45  90.5476
 36.9856  8349.27  90.6281
 37.1836  8286.58  89.3852
 37.3816  8316.69  89.9142
 37.5796  8186.43  90.945
 37.7776  8039.61  88.5139
 37.9756  7971.63  88.0184
 38.1736  8256.74  89.7733
 38.3716  8103.22  89.2143
 38.5696  8109.94  89.6233
 38.7676  7750.58  87.1316
 38.9656  7883.64  87.5125
 39.1636  7907.75  87.9104
 39.3616  7986.62  88.2772
 39.5596  7830.18  88.2474
 39.7576  7890.97  87.9665
 39.9556  7890.38  87.6006
 40.1536  8087.17  88.8961
 40.3516  8015.32  88.5074
 40.5496  7996.64  88.6657
 40.7476  8064.1  89.04
 40.9456  8143.12  89.2272
 41.1436  8064.67  88.5118
 41.3416  8103.75  89.0646
 41.5396  7925.15  87.8878
 41.7376  7895.7  87.9916
 41.9356  7934.78  88.0681
 42.1336  7970.01  88.4157
 42.3316  7992.96  88.7357
 42.5296  7883.74  87.6443
 42.7276  7928.89  88.1368
 42.9256  7932.13  88.0196
 43.1236  7751.95  87.1277
 43.3216  7879.46  87.5926
 43.5196  7733.84  86.8437
 43.7176  7691.89  86.9943
 43.9156  7569.93  86.2098
 44.1136  7735.02  86.6929
 44.3116  7595.56  85.9188
 44.5096  7609.01  86.3012
 44.7076  7594.26  86.1525
 44.9056  7627.79  86.2203
 45.1036  7464.54  84.9191
 45.3016  7462.22  85.4088
 45.4996  7494.31  85.5317
 45.6976  7316.84  84.6839
 45.8956  7378.51  84.8594
 46.0936  7395.75  84.9628
 46.2916  7372.87  84.8109
 46.4896  7421.79  85.1256
 46.6876  7266.29  84.9385
 46.8856  7234.9  84.0172
 47.0836  7127.75  83.6387
 47.2816  7115.42  83.4412
 47.4796  7173.55  83.8897
 47.6776  7123.22  84.5352
 47.8756  7019.72  83.1021
 48.0736  7109.75  84.0838
 48.2716  7002.38  83.2655
 48.4696  7159.84  83.7958
 48.6676  6970.83  83.2504
 48.8656  7087.22  83.677
 49.0636  7050.14  83.4023
 49.2616  6943.7  82.8015
 49.4596  6986.51  82.6347
 49.6576  6950.73  82.6482
 49.8556  6907.35  82.4044
 50.0536  6874.91  82.6581
 50.2516  6844.81  82.6112
 50.4496  6828.99  82.1652
 50.6476  6888.79  82.2102
 50.8456  6777.11  81.6368
 51.0436  6809.43  82.2563
 51.2416  6666.59  81.0673
 51.4396  6569.4  80.8618
 51.6376  6591.56  80.8272
 51.8356  6629.77  80.6956
 52.0336  6416.96  79.9008
 52.2316  6548.04  81.0571
 52.4296  6473.9  80.2949
 52.6276  6466.43  80.3488
 52.8256  6553.48  80.4537
 53.0236  6361.37  79.9036
 53.2216  6391.44  80.1271
 53.4196  6383.86  80.0065
 53.6176  6327.95  80.1265
 53.8156  6298.74  79.6162
 54.0136  6433.13  80.6343
 54.2116  6331.59  79.6634
 54.4096  6326.33  79.6728
 54.6076  6263.19  79.6196
 54.8056  6219.67  79.1376
 55.0036  6224.32  79.5483
 55.2016  6240.43  79.2061
 55.3996  6290.91  79.4955
 55.5976  6191.09  79.048
 55.7956  6306.92  79.6009
 55.9936  6139.21  78.675
 56.1916  6192.01  79.0188
 56.3896  6260.1  79.4465
 56.5876  6119.46  79.1002
 56.7856  6247.14  79.4008
 56.9836  6181.38  78.7638
 57.1816  6259.69  79.6471
 57.3796  6204.29  79.0897
 57.5776  6147.4  78.6557
 57.7756  6068.23  78.7807
 57.9736  6152.13  78.9905
 58.1716  6227.34  79.7233
 58.3696  6105.61  78.6756
 58.5676  6124.48  78.2763
 58.7656  6213.65  79.5269
 58.9636  6315.19  80.2073
 59.1616  6219.36  79.7248
 59.3596  6268.01  79.2871
 59.5576  6344.6  79.828
 59.7556  6167.71  79.1299
 59.9536  6245.86  79.5269
 60.1516  6268.01  80.5324
 60.1996  0.0000000E+00  0.0000000E+00