File: docs/examples/opeando_xrd/IS17_D/Data/IS17_D/17_Db_f00112.xye
# /beamlines/bl04/projects/cycle2025-II/20250340211-lsimonelli/DATA/IS17_D/17_Db_f00112.xye : mythproc.py merge -s 0.006 -l 0.5 -f /beamlines/bl04/inhouse/ff/FlatField/ff_20Nov2024rod8mm60s_17keV.raw -b True -c true -o xye /beamlines/bl04/projects/cycle2025-II/20250340211-lsimonelli/DATA/IS17_D/17_Db_00112.dat
# IsMon = [6742542, 6743968, 6741817]  IsPos = [-1.5000, -2.4884, -3.4988]
# Wave = 0.4962  CalPath /beamlines/bl04/projects/cycle2025-II/20250340211-lsimonelli/DATA/Align/Si_Pos1_25keV_f00001.cal
# Date = 2025-09-25_00:55:32 Dt = 4.8000  Bin = 0.0060  <imon> = 6742776 +/- 894 (Min/Max) 6741817 / 6743968
# icurr 249.0166  mocoIn 1.6999E-05  mocoOut 0.7974  i15 7.06769e+06  imon 6.74278e+06  i7 4.6667  iEMpd_timer 4.8000  iEMpd_1 3.5020E-08  iEMpd_2 7.8537E-08  iEMpd_3 1.7793E-08  iEMpd_4 4.7358E-08  iEMhp_timer 4.8000  iEMhp_1 4.8670E-06  iEMhp_2 -2.4710E-08  iEMhp_3 -2.4710E-08  iEMhp_4 -2.0858E-08
#      9776
 1.7416  70268.1  265.162
 1.9396  49178.9  222.114
 2.1376  36742.8  191.986
 2.3356  33306.6  182.404
 2.5336  31160.7  177.051
 2.7316  28848.6  170.469
 2.9296  27719.3  167.259
 3.1276  26857  164.171
 3.3256  25951.2  161.021
 3.5236  27135.4  164.445
 3.7216  24746  158.327
 3.9196  24114.9  155.49
 4.1176  24126.8  155.311
 4.3156  25017.4  158.332
 4.5136  27291.3  164.324
 4.7116  28292.6  168.461
 4.9096  27632  165.915
 5.1076  27375.3  165.73
 5.3056  27269.2  165.131
 5.5036  27186.6  164.785
 5.7016  27233.3  164.886
 5.8996  27895.3  166.109
 6.0976  28729.2  169.991
 6.2956  28979.4  170.078
 6.4936  30055.8  172.386
 6.6916  30229.7  173.878
 6.8896  31096.3  176.211
 7.0876  32666.2  181.268
 7.2856  31818  178.029
 7.4836  32409.2  179.012
 7.6816  33048.5  181.294
 7.8796  34039.9  184.006
 8.0776  35368.2  188.551
 8.2756  37074.4  191.659
 8.4736  37566.1  192.731
 8.6716  37048  192.016
 8.8696  37818.7  194.526
 9.0676  36839.1  191.301
 9.2656  35789.3  189.265
 9.4636  34648.3  184.683
 9.6616  34102.2  183.95
 9.8596  33522.3  181.81
 10.0576  31583.3  177.133
 10.2556  30334.8  174.058
 10.4536  29582.9  171.479
 10.6516  28439.2  168.349
 10.8496  27513.4  165.007
 11.0476  26808.8  162.896
 11.2456  25819.5  160.386
 11.4436  25921.2  159.884
 11.6416  27475.3  164.952
 11.8396  25062.3  157.754
 12.0376  24415.6  155.351
 12.2356  24131.1  154.853
 12.4336  24258.7  154.811
 12.6316  24044.3  154.383
 12.8296  24139.4  154.292
 13.0276  24390.4  155.309
 13.2256  24899.8  157.292
 13.4236  24706  156.454
 13.6216  24883.1  157.012
 13.8196  27097.9  163.281
 14.0176  23985.6  154.23
 14.2156  23577.6  151.931
 14.4136  22394.7  149.465
 14.6116  22159.7  147.871
 14.8096  21372.4  145.202
 15.0076  20586.2  146.422
 15.2056  19485.6  138.264
 15.4036  18514.7  135.594
 15.6016  18294.7  133.88
 15.7996  17842  132.487
 15.9976  17435.7  133.877
 16.1956  17208.6  130.872
 16.3936  16752.8  128.314
 16.5916  16528.7  128.093
 16.7896  16294.2  127.242
 16.9876  16338.6  128.863
 17.1856  16199.3  126.684
 17.3836  15923.7  125.507
 17.5816  15387.6  123.856
 17.7796  15093.7  122.599
 17.9776  14542.2  121.114
 18.1756  14598.3  120.102
 18.3736  14428.5  119.882
 18.5716  14087.5  118.212
 18.7696  14278  118.575
 18.9676  14181.1  117.97
 19.1656  13768.9  116.833
 19.3636  13913.2  117.63
 19.5616  13916.4  117.815
 19.7596  13972.1  117.453
 19.9576  13997.2  117.598
 20.1556  14906.7  121.906
 20.3536  14078.8  117.843
 20.5516  13576.8  116.173
 20.7496  13365  115.108
 20.9476  13252.8  114.471
 21.1456  12994.7  113.672
 21.3436  12991.5  113.603
 21.5416  12892.7  113.191
 21.7396  12750.6  112.406
 21.9376  12679.5  111.871
 22.1356  12848.6  112.88
 22.3336  12596.5  111.904
 22.5316  12491.9  111.528
 22.7296  12344.5  110.248
 22.9276  12476.3  111.501
 23.1256  12447.9  110.854
 23.3236  12820.7  113.082
 23.5216  12618.1  111.824
 23.7196  12615.1  111.977
 23.9176  12676.7  111.779
 24.1156  12362.1  110.84
 24.3136  11999.4  110.003
 24.5116  12070.5  109.848
 24.7096  11716.2  108.033
 24.9076  11565.1  107.375
 25.1056  11319.2  106.676
 25.3036  11020.2  104.787
 25.5016  11081.1  105.114
 25.6996  10948.5  104.07
 25.8976  11064.4  105.05
 26.0956  10912.6  104.344
 26.2936  10871.4  103.801
 26.4916  11030  104.401
 26.6896  10833  103.784
 26.8876  10748.1  103.229
 27.0856  10489  102.043
 27.2836  10337.1  101.19
 27.4816  10244.2  100.677
 27.6796  10429.2  101.95
 27.8776  10410.4  101.703
 28.0756  10046.7  100.208
 28.2736  9969.08  99.4044
 28.4716  9913.52  99.1804
 28.6696  9906.01  98.9825
 28.8676  9735.01  98.4762
 29.0656  9648.09  98.0104
 29.2636  9769.19  98.4157
 29.4616  9315.34  96.2876
 29.6596  9388.97  96.2382
 29.8576  9203.81  95.9576
 30.0556  9437.91  97.0527
 30.2536  9443.43  96.8718
 30.4516  9538.44  96.9941
 30.6496  9456.15  96.3146
 30.8476  9483.38  96.9001
 31.0456  9635.39  97.6316
 31.2436  9528.7  96.3397
 31.4416  9376.86  95.7527
 31.6396  9344.08  95.636
 31.8376  9419.12  95.5391
 32.0356  9232.19  95.1691
 32.2336  9347.14  95.1517
 32.4316  9002.84  93.7871
 32.6296  8960.73  93.3961
 32.8276  8960.94  93.1897
 33.0256  8854.25  92.6996
 33.2236  9006.93  93.6371
 33.4216  8826.99  92.3895
 33.6196  8839.21  92.7425
 33.8176  8857.26  93.0155
 34.0156  8664.7  91.6209
 34.2136  8811.91  92.4173
 34.4116  8495.89  90.9134
 34.6096  8628.38  91.4942
 34.8076  8523.78  91.3555
 35.0056  8570.51  91.2719
 35.2036  8760.5  92.509
 35.4016  8540.14  91.25
 35.5996  8357.79  90.3035
 35.7976  8360.83  90.6004
 35.9956  8615.9  91.6128
 36.1936  8507.86  90.8848
 36.3916  8318.65  90.0677
 36.5896  8239.18  90.6127
 36.7876  7964  88.4945
 36.9856  7884.28  88.0706
 37.1836  7914.24  87.3617
 37.3816  8045.91  88.4509
 37.5796  8058.8  90.238
 37.7776  8089.86  88.7849
 37.9756  8136.95  88.919
 38.1736  8151.96  89.2
 38.3716  8111.02  89.2527
 38.5696  8002.92  89.0182
 38.7676  7955.19  88.2651
 38.9656  7945.35  87.836
 39.1636  8055.28  88.7192
 39.3616  7950.57  88.0749
 39.5596  7781.14  87.9663
 39.7576  7917.8  88.1184
 39.9556  7963.67  88.0156
 40.1536  8045.18  88.6648
 40.3516  8077.19  88.8404
 40.5496  7967.31  88.4863
 40.7476  7995.75  88.6594
 40.9456  8100.72  88.9932
 41.1436  8053.77  88.4544
 41.3416  7845.44  87.6368
 41.5396  7930.95  87.9211
 41.7376  7964.97  88.3718
 41.9356  8066.97  88.7871
 42.1336  8038.78  88.7776
 42.3316  7865.12  88.0189
 42.5296  7889.79  87.6774
 42.7276  7931.11  88.1459
 42.9256  7975.95  88.2668
 43.1236  7835.33  87.5924
 43.3216  7875.73  87.5626
 43.5196  7754.02  86.9342
 43.7176  7754.79  87.3407
 43.9156  7566.68  86.1976
 44.1136  7563.92  85.7339
 44.3116  7642.14  86.1977
 44.5096  7430.03  85.295
 44.7076  7660.98  86.5392
 44.9056  7783.46  87.0976
 45.1036  7669.29  86.0741
 45.3016  7821.41  87.4271
 45.4996  7563.86  85.9177
 45.6976  7483.72  85.6462
 45.8956  7571.37  85.9485
 46.0936  7798.44  86.9766
 46.2916  7505.48  85.5539
 46.4896  7633.32  86.2999
 46.6876  7603.53  86.8628
 46.8856  7532.14  85.7251
 47.0836  7487.19  85.714
 47.2816  7317.81  84.6191
 47.4796  7486.84  85.7004
 47.6776  7393.67  86.1137
 47.8756  7424.72  85.4637
 48.0736  7430.24  85.959
 48.2716  7231.38  84.6167
 48.4696  7501.37  85.7584
 48.6676  7528.93  86.5278
 48.8656  7399.35  85.4994
 49.0636  7494.63  85.992
 49.2616  7296.85  84.8928
 49.4596  7339.45  84.6937
 49.6576  7301.15  84.6949
 49.8556  7333.22  84.9042
 50.0536  7293.4  85.1256
 50.2516  7359.1  85.6539
 50.4496  7338.37  85.174
 50.6476  7334.7  84.8271
 50.8456  7233.58  84.3252
 51.0436  7161.33  84.3571
 51.2416  7070.1  83.4955
 51.4396  7055.19  83.8107
 51.6376  7080.65  83.7786
 51.8356  6956.94  82.6546
 52.0336  7059.56  83.79
 52.2316  7070.85  84.2314
 52.4296  6890.65  82.8495
 52.6276  6893.15  82.9731
 52.8256  6904.93  82.6011
 53.0236  7072.81  84.2415
 53.2216  7001.39  83.8245
 53.4196  6903.94  83.1668
 53.6176  6999.75  84.2539
 53.8156  6936.22  83.5363
 54.0136  6667.1  82.0734
 54.2116  6899.36  83.1173
 54.4096  6669.91  81.8057
 54.6076  6545.73  81.3915
 54.8056  6576.01  81.3448
 55.0036  6682.95  82.2715
 55.2016  6641.99  81.5754
 55.3996  6442.9  80.4267
 55.5976  6514.85  81.077
 55.7956  6594.85  81.3758
 55.9936  6606.87  81.5837
 56.1916  6569.51  81.3808
 56.3896  6351.28  80.0018
 56.5876  6201.15  79.6019
 56.7856  6330.6  79.9197
 56.9836  6388.76  80.0592
 57.1816  6460.87  80.8614
 57.3796  6218.9  79.1712
 57.5776  6319.86  79.684
 57.7756  6131.59  79.1689
 57.9736  6201.69  79.2899
 58.1716  6201.39  79.5543
 58.3696  5963.18  77.7648
 58.5676  5928.83  77.0138
 58.7656  5948.16  77.8171
 58.9636  6006.93  78.2263
 59.1616  6097.13  78.9458
 59.3596  5934.22  77.1602
 59.5576  5996.3  77.619
 59.7556  5941.29  77.677
 59.9536  6041.58  78.2288
 60.1516  5917.38  78.2607
 60.1996  0.0000000E+00  0.0000000E+00