File: docs/examples/opeando_xrd/IS17_D/Data/IS17_D/17_Db_f00100.xye
# /beamlines/bl04/projects/cycle2025-II/20250340211-lsimonelli/DATA/IS17_D/17_Db_f00100.xye : mythproc.py merge -s 0.006 -l 0.5 -f /beamlines/bl04/inhouse/ff/FlatField/ff_20Nov2024rod8mm60s_17keV.raw -b True -c true -o xye /beamlines/bl04/projects/cycle2025-II/20250340211-lsimonelli/DATA/IS17_D/17_Db_00100.dat
# IsMon = [6743826, 6744796, 6746734]  IsPos = [-1.5000, -2.4884, -3.4988]
# Wave = 0.4962  CalPath /beamlines/bl04/projects/cycle2025-II/20250340211-lsimonelli/DATA/Align/Si_Pos1_25keV_f00001.cal
# Date = 2025-09-24_21:33:50 Dt = 4.8000  Bin = 0.0060  <imon> = 6745119 +/- 1209 (Min/Max) 6743826 / 6746734
# icurr 249.4196  mocoIn 1.7017E-05  mocoOut 0.7985  i15 7.07176e+06  imon 6.74512e+06  i7 5.0000  iEMpd_timer 4.8000  iEMpd_1 3.4919E-08  iEMpd_2 7.8293E-08  iEMpd_3 1.6467E-08  iEMpd_4 4.7619E-08  iEMhp_timer 4.8000  iEMhp_1 4.8726E-06  iEMhp_2 -2.4633E-08  iEMhp_3 -2.3102E-08  iEMhp_4 -2.1822E-08
#      9776
 1.7416  70656  265.914
 1.9396  48857.5  221.408
 2.1376  35615.7  189.033
 2.3356  32602.9  180.481
 2.5336  30142.5  174.148
 2.7316  27565.5  166.649
 2.9296  26481.4  163.502
 3.1276  26027.6  161.627
 3.3256  25249.7  158.847
 3.5236  26374.9  162.146
 3.7216  24305.5  156.907
 3.9196  23614.8  153.866
 4.1176  23713.2  153.98
 4.3156  24543.7  156.816
 4.5136  26840.6  162.961
 4.7116  27845.7  167.129
 4.9096  27096.2  164.299
 5.1076  26947.1  164.427
 5.3056  26985.2  164.265
 5.5036  26734.4  163.413
 5.7016  27215.6  164.84
 5.8996  27673.5  165.449
 6.0976  28306.8  168.742
 6.2956  28383.5  168.315
 6.4936  29262.7  170.103
 6.6916  29565.5  171.956
 6.8896  30340.7  174.048
 7.0876  31664.5  178.47
 7.2856  31065.2  175.908
 7.4836  31503.9  176.501
 7.6816  32338.2  179.325
 7.8796  33075.7  181.372
 8.0776  34345.6  185.797
 8.2756  36058.1  188.999
 8.4736  36613.8  190.263
 8.6716  35905.2  189.035
 8.8696  36805.6  191.889
 9.0676  35875.4  188.775
 9.2656  34737.2  186.456
 9.4636  33866.4  182.569
 9.6616  33233.7  181.58
 9.8596  32458.3  178.918
 10.0576  30412.2  173.844
 10.2556  29510.7  171.696
 10.4536  28368.8  167.947
 10.6516  27717.6  166.209
 10.8496  26804.9  162.861
 11.0476  25905.6  160.128
 11.2456  25199.9  158.45
 11.4436  25446.2  158.41
 11.6416  26193.5  161.064
 11.8396  24372.4  155.565
 12.0376  23673.7  152.962
 12.2356  23345.1  152.312
 12.4336  23360.4  151.913
 12.6316  23264.1  151.861
 12.8296  23366.1  151.811
 13.0276  23593.3  152.752
 13.2256  24058.9  154.616
 13.4236  23825.5  153.636
 13.6216  24316.6  155.209
 13.8196  26197.1  160.553
 14.0176  23258.8  151.867
 14.2156  22907.1  149.765
 14.4136  21867  147.685
 14.6116  21519.6  145.72
 14.8096  20775.8  143.16
 15.0076  20001.3  144.323
 15.2056  18911.4  136.208
 15.4036  18196.1  134.422
 15.6016  17866.5  132.299
 15.7996  17271.2  130.343
 15.9976  17104.5  132.574
 16.1956  16703.6  128.933
 16.3936  16431.1  127.075
 16.5916  15892.7  125.598
 16.7896  16101.9  126.471
 16.9876  15986.5  127.472
 17.1856  15707.8  124.75
 17.3836  15482.3  123.77
 17.5816  14890.4  121.854
 17.7796  14717.4  121.073
 17.9776  14343.8  120.279
 18.1756  14407.7  119.317
 18.3736  14093.7  118.48
 18.5716  13963.6  117.692
 18.7696  14082.6  117.765
 18.9676  14076.7  117.545
 19.1656  13530.8  115.809
 19.3636  13582.9  116.227
 19.5616  13503.9  116.052
 19.7596  13695.9  116.284
 19.9576  13883.9  117.119
 20.1556  14432.1  119.946
 20.3536  13534.8  115.547
 20.5516  13195  114.527
 20.7496  12936.5  113.249
 20.9476  12899.2  112.93
 21.1456  12760.7  112.645
 21.3436  12514.3  111.503
 21.5416  12527.8  111.578
 21.7396  12359  110.667
 21.9376  12313.1  110.236
 22.1356  12400.8  110.898
 22.3336  12161.9  109.96
 22.5316  12044.7  109.515
 22.7296  12164.4  109.438
 22.9276  12096.9  109.779
 23.1256  12150.8  109.513
 23.3236  12503.4  111.668
 23.5216  12350.9  110.622
 23.7196  12250.2  110.343
 23.9176  12270.6  109.972
 24.1156  11987.1  109.138
 24.3136  11714.1  108.69
 24.5116  11725.8  108.277
 24.7096  11500.2  107.041
 24.9076  11338.9  106.321
 25.1056  10999.2  105.172
 25.3036  10780.6  103.638
 25.5016  10815.5  103.848
 25.6996  10844.5  103.575
 25.8976  10852.2  104.043
 26.0956  10620.6  102.933
 26.2936  10652.4  102.754
 26.4916  10799.7  103.319
 26.6896  10624.9  102.786
 26.8876  10430.8  101.704
 27.0856  10344.3  101.337
 27.2836  10186.4  100.448
 27.4816  10054.4  99.7338
 27.6796  10022.7  99.9359
 27.8776  10202.4  100.687
 28.0756  9859.94  99.2651
 28.2736  9844.38  98.7768
 28.4716  9599.37  97.5916
 28.6696  9699.54  97.9518
 28.8676  9624.31  97.9124
 29.0656  9468.17  97.0921
 29.2636  9480.55  96.9542
 29.4616  9137.9  95.3636
 29.6596  9184.43  95.1828
 29.8576  9125.69  95.5457
 30.0556  9001.56  94.7754
 30.2536  9104.74  95.1142
 30.4516  9318.49  95.8635
 30.6496  9206.07  95.023
 30.8476  9194.74  95.41
 31.0456  9239.6  95.6058
 31.2436  9226.47  94.8115
 31.4416  9304.06  95.3915
 31.6396  9257.47  95.1888
 31.8376  9094.17  93.8811
 32.0356  8961.78  93.7478
 32.2336  9068.84  93.7322
 32.4316  8723.32  92.3174
 32.6296  8755.4  92.3157
 32.8276  8903.56  92.8878
 33.0256  8642.32  91.5689
 33.2236  8814.39  92.633
 33.4216  8675.69  91.5903
 33.6196  8694.98  91.9842
 33.8176  8623.68  91.7793
 34.0156  8478.85  90.6326
 34.2136  8602.42  91.3178
 34.4116  8303.38  89.8764
 34.6096  8429.27  90.429
 34.8076  8330.26  90.3119
 35.0056  8349.48  90.0839
 35.2036  8550.25  91.3941
 35.4016  8284.15  89.8739
 35.5996  8185.25  89.3682
 35.7976  8169.09  89.5365
 35.9956  8359.12  90.232
 36.1936  8230.88  89.3763
 36.3916  8075.45  88.7375
 36.5896  8123.83  89.9827
 36.7876  7911.29  88.1971
 36.9856  7845.97  87.8541
 37.1836  7884.21  87.1929
 37.3816  7949.64  87.9116
 37.5796  7850.6  89.064
 37.7776  7971  88.1261
 37.9756  8038.28  88.3807
 38.1736  7958.52  88.1286
 38.3716  7909.78  88.1273
 38.5696  7739.45  87.543
 38.7676  7676.4  86.7126
 38.9656  7733.12  86.6682
 39.1636  7864.58  87.6687
 39.3616  7811.52  87.3062
 39.5596  7618.06  87.0426
 39.7576  7619.01  86.4382
 39.9556  7754.33  86.8477
 40.1536  7853.76  87.6016
 40.3516  7797.67  87.2978
 40.5496  7766.61  87.3701
 40.7476  7740.67  87.2332
 40.9456  7827.33  87.4742
 41.1436  7989.53  88.1023
 41.3416  7639.52  86.4787
 41.5396  7709.84  86.6823
 41.7376  7743.03  87.126
 41.9356  7751.62  87.038
 42.1336  7818.32  87.5535
 42.3316  7616.91  86.6139
 42.5296  7659.73  86.3891
 42.7276  7706.15  86.8837
 42.9256  7693.57  86.6856
 43.1236  7545.2  85.9493
 43.3216  7715.25  86.6647
 43.5196  7583.78  85.9813
 43.7176  7603.35  86.4862
 43.9156  7365.94  85.0423
 44.1136  7354.07  84.5343
 44.3116  7405.26  84.8404
 44.5096  7481.35  85.5834
 44.7076  7334.58  84.6707
 44.9056  7452.05  85.2182
 45.1036  7547.69  85.3874
 45.3016  7567  86.0008
 45.4996  7436.89  85.1977
 45.6976  7337.26  84.7984
 45.8956  7443.58  85.2337
 46.0936  7429.83  84.9127
 46.2916  7505.53  85.5671
 46.4896  7433.05  85.1789
 46.6876  7372.77  85.5443
 46.8856  7238.78  84.022
 47.0836  7341.24  84.8705
 47.2816  7157.01  83.6851
 47.4796  7235.23  84.2551
 47.6776  7286.99  85.5019
 47.8756  7265.97  84.5505
 48.0736  7226.49  84.7704
 48.2716  7176  84.2901
 48.4696  7244.7  84.283
 48.6676  7254.67  84.9235
 48.8656  7274.18  84.7688
 49.0636  7269.54  84.6937
 49.2616  7074.28  83.5849
 49.4596  7163.43  83.6626
 49.6576  7156.68  83.8535
 49.8556  7159.81  83.8943
 50.0536  7251.32  84.8852
 50.2516  7133.01  84.3172
 50.4496  7071.81  83.615
 50.6476  7054.97  83.1923
 50.8456  7162.34  83.8993
 51.0436  7046.31  83.6787
 51.2416  6847.94  82.1648
 51.4396  6740.33  81.918
 51.6376  6778.95  81.9767
 51.8356  6959.9  82.6789
 52.0336  6912.7  82.9205
 52.2316  6772.88  82.4292
 52.4296  6821.41  82.4219
 52.6276  6862.9  82.7857
 52.8256  6822.16  82.1
 53.0236  6926.94  83.3804
 53.2216  6801.98  82.632
 53.4196  6858.51  82.9071
 53.6176  6738.38  82.6837
 53.8156  6863.17  83.112
 54.0136  6585.08  81.5589
 54.2116  6701.93  81.9275
 54.4096  6529.11  80.9369
 54.6076  6513.79  81.1799
 54.8056  6414.57  80.3337
 55.0036  6596.07  81.7325
 55.2016  6390.33  80.0158
 55.3996  6243.79  79.181
 55.5976  6346.36  80.0187
 55.7956  6336.85  79.7655
 55.9936  6392.62  80.2503
 56.1916  6260.11  79.4416
 56.3896  6139.82  78.6562
 56.5876  6214.56  79.693
 56.7856  6168.67  78.9017
 56.9836  6247.48  79.1763
 57.1816  6274.2  79.6967
 57.3796  6133.38  78.6121
 57.5776  6069.89  78.0978
 57.7756  6093.17  78.9188
 57.9736  6022.22  78.1265
 58.1716  6005.51  78.279
 58.3696  5834.34  76.9238
 58.5676  5931.34  77.0294
 58.7656  5819.37  76.9674
 58.9636  5764.75  76.6267
 59.1616  5842.04  77.2716
 59.3596  5838.23  76.519
 59.5576  5893.5  76.9361
 59.7556  5751.95  76.4147
 59.9536  5829.02  76.8256
 60.1516  5818.52  77.5894
 60.1996  0.0000000E+00  0.0000000E+00