File: docs/examples/opeando_xrd/IS17_D/Data/IS17_D/17_Db_f00057.xye
# /beamlines/bl04/projects/cycle2025-II/20250340211-lsimonelli/DATA/IS17_D/17_Db_f00057.xye : mythproc.py merge -s 0.006 -l 0.5 -f /beamlines/bl04/inhouse/ff/FlatField/ff_20Nov2024rod8mm60s_17keV.raw -b True -c true -o xye /beamlines/bl04/projects/cycle2025-II/20250340211-lsimonelli/DATA/IS17_D/17_Db_00057.dat
# IsMon = [6747274, 6748672, 6751167]  IsPos = [-1.4999, -2.4884, -3.4988]
# Wave = 0.4962  CalPath /beamlines/bl04/projects/cycle2025-II/20250340211-lsimonelli/DATA/Align/Si_Pos1_25keV_f00001.cal
# Date = 2025-09-24_09:33:23 Dt = 4.8000  Bin = 0.0060  <imon> = 6749038 +/- 1610 (Min/Max) 6747274 / 6751167
# icurr 249.3262  mocoIn 1.7014E-05  mocoOut 0.7982  i15 7.07211e+06  imon 6.74904e+06  i7 6.0000  iEMpd_timer 4.8000  iEMpd_1 3.5151E-08  iEMpd_2 7.8832E-08  iEMpd_3 1.6381E-08  iEMpd_4 4.7892E-08  iEMhp_timer 4.8000  iEMhp_1 4.8726E-06  iEMhp_2 -2.4937E-08  iEMhp_3 -2.4784E-08  iEMhp_4 -2.2571E-08
#      9776
 1.7416  69916.2  264.527
 1.9396  48405.8  220.383
 2.1376  35668  189.178
 2.3356  32080.5  179.036
 2.5336  29449.5  172.141
 2.7316  27120.5  165.304
 2.9296  25747.6  161.215
 3.1276  25603.9  160.313
 3.3256  24760  157.305
 3.5236  26417.4  162.281
 3.7216  24021.5  155.986
 3.9196  23786.5  154.424
 4.1176  23602  153.617
 4.3156  24508.3  156.7
 4.5136  26781.6  162.788
 4.7116  27885.6  167.249
 4.9096  27112.6  164.348
 5.1076  26840.8  164.108
 5.3056  27002.8  164.315
 5.5036  26769  163.518
 5.7016  27174.1  164.71
 5.8996  27535.6  165.035
 6.0976  28658  169.785
 6.2956  28633.9  169.06
 6.4936  29484.2  170.741
 6.6916  29799.6  172.644
 6.8896  30517.4  174.572
 7.0876  31880.4  179.17
 7.2856  31507.9  177.157
 7.4836  31969.4  177.803
 7.6816  32780.5  180.565
 7.8796  33430.6  182.342
 8.0776  35021.8  187.613
 8.2756  36611.5  190.439
 8.4736  37285.2  191.998
 8.6716  36673  191.037
 8.8696  37169  192.837
 9.0676  36243.3  189.754
 9.2656  35681.2  188.96
 9.4636  34552.5  184.407
 9.6616  33600.3  182.581
 9.8596  33316.8  181.274
 10.0576  30867.8  175.145
 10.2556  30041  173.235
 10.4536  29289.9  170.657
 10.6516  28625.3  168.916
 10.8496  27385.9  164.623
 11.0476  26768.4  162.777
 11.2456  25759.1  160.2
 11.4436  26323.4  161.122
 11.6416  26202.5  161.093
 11.8396  24699.2  156.608
 12.0376  24255.8  154.835
 12.2356  23801.9  153.797
 12.4336  23814.3  153.384
 12.6316  23898.5  153.922
 12.8296  23927.5  153.621
 13.0276  24166.8  154.593
 13.2256  24300.1  155.388
 13.4236  24187.5  154.804
 13.6216  24677.6  156.356
 13.8196  26657.9  161.981
 14.0176  23566.7  152.875
 14.2156  23293.2  151.02
 14.4136  22172.5  148.717
 14.6116  21706  146.345
 14.8096  21227.2  144.694
 15.0076  20165.2  144.919
 15.2056  19261.5  137.458
 15.4036  18368.8  135.062
 15.6016  17896.8  132.407
 15.7996  17595.6  131.558
 15.9976  17242.4  133.114
 16.1956  16750.9  129.11
 16.3936  16779.6  128.392
 16.5916  16401.5  127.592
 16.7896  16186.2  126.808
 16.9876  16152.7  128.134
 17.1856  15985.9  125.861
 17.3836  15669  124.513
 17.5816  15203.3  123.128
 17.7796  15013.1  122.289
 17.9776  14536.6  121.091
 18.1756  14587.1  120.06
 18.3736  14387.8  119.709
 18.5716  14155  118.501
 18.7696  14227.1  118.364
 18.9676  14146.6  117.823
 19.1656  13858.1  117.201
 19.3636  13782.1  117.08
 19.5616  13759  117.149
 19.7596  13915.8  117.22
 19.9576  14382.1  119.211
 20.1556  14275.1  119.29
 20.3536  13643  116.006
 20.5516  13292.4  114.949
 20.7496  13008.4  113.655
 20.9476  13075  113.701
 21.1456  12899.4  113.258
 21.3436  12770.8  112.643
 21.5416  12674.7  112.231
 21.7396  12593.9  111.711
 21.9376  12544.1  111.264
 22.1356  12543.9  111.387
 22.3336  12255  110.376
 22.5316  12253.6  110.459
 22.7296  12323.4  110.146
 22.9276  12151.7  110.033
 23.1256  12471  110.944
 23.3236  12735.7  112.7
 23.5216  12547.4  111.491
 23.7196  12282.2  110.269
 23.9176  12491.1  110.959
 24.1156  12285.6  110.496
 24.3136  11894.8  109.532
 24.5116  11990.3  109.492
 24.7096  11494.9  107.025
 24.9076  11512  107.137
 25.1056  11154.3  105.913
 25.3036  11011.4  104.748
 25.5016  10922.4  104.36
 25.6996  10947.7  104.058
 25.8976  10928.5  104.408
 26.0956  10817.1  103.875
 26.2936  10797.1  103.451
 26.4916  10995.6  104.256
 26.6896  10625.5  102.793
 26.8876  10567.9  102.374
 27.0856  10450  101.851
 27.2836  10312.5  101.064
 27.4816  10224.3  100.578
 27.6796  10185.7  100.747
 27.8776  10352.4  101.419
 28.0756  10069.4  100.319
 28.2736  9909.99  99.1091
 28.4716  9794.26  98.5821
 28.6696  9958.76  99.25
 28.8676  9710.71  98.3582
 29.0656  9677.83  98.1655
 29.2636  9640.32  97.7691
 29.4616  9248.41  95.9307
 29.6596  9375.23  96.1638
 29.8576  9317  96.5341
 30.0556  9212.62  95.8743
 30.2536  9406.63  96.6776
 30.4516  9464.73  96.6199
 30.6496  9449.91  96.281
 30.8476  9441.67  96.6824
 31.0456  9432.37  96.5998
 31.2436  9392.09  95.6533
 31.4416  9163.87  94.6737
 31.6396  9159.77  94.6958
 31.8376  9243.4  94.6371
 32.0356  9196.37  94.9816
 32.2336  9243.26  94.6278
 32.4316  9005.12  93.7989
 32.6296  8975.94  93.4851
 32.8276  8896.7  92.8611
 33.0256  8884.67  92.8548
 33.2236  8976.37  93.4863
 33.4216  8772.63  92.0954
 33.6196  8859.14  92.8514
 33.8176  8647.49  91.9
 34.0156  8607.46  91.3169
 34.2136  8846.02  92.598
 34.4116  8506.7  90.9664
 34.6096  8637.88  91.5418
 34.8076  8464.78  91.0394
 35.0056  8533.92  91.0745
 35.2036  8628.48  91.8114
 35.4016  8379.98  90.388
 35.5996  8378.76  90.4144
 35.7976  8298.68  90.2512
 35.9956  8543.6  91.2288
 36.1936  8425.6  90.4408
 36.3916  8218.58  89.5232
 36.5896  8285.33  90.8707
 36.7876  8081.29  89.1387
 36.9856  7919.7  88.2692
 37.1836  7981.38  87.7271
 37.3816  8053.92  88.484
 37.5796  8069.08  90.2953
 37.7776  8072.03  88.6867
 37.9756  8085.94  88.6407
 38.1736  8167.5  89.2785
 38.3716  7968.23  88.455
 38.5696  8004.61  89.0259
 38.7676  7866.45  87.7743
 38.9656  7867.41  87.4117
 39.1636  7968.92  88.2535
 39.3616  7911.3  87.8655
 39.5596  7761.63  87.8468
 39.7576  7845.24  87.7182
 39.9556  7840.21  87.3257
 40.1536  7925.96  87.9997
 40.3516  7938.07  88.0759
 40.5496  7985.79  88.5952
 40.7476  7953.01  88.4219
 40.9456  7937.04  88.0851
 41.1436  7974.06  88.0218
 41.3416  7848.07  87.6516
 41.5396  7827.23  87.3461
 41.7376  7859.33  87.784
 41.9356  7755.48  87.0632
 42.1336  8007.65  88.6079
 42.3316  7740.88  87.3134
 42.5296  7893.07  87.692
 42.7276  7833.64  87.5981
 42.9256  7837.86  87.5007
 43.1236  7806.2  87.4283
 43.3216  7782.07  87.0385
 43.5196  7701.86  86.6554
 43.7176  7682.69  86.9355
 43.9156  7564.02  86.1786
 44.1136  7403.48  84.8182
 44.3116  7585.26  85.8578
 44.5096  7543.91  85.9395
 44.7076  7566.97  86.0004
 44.9056  7690.36  86.5706
 45.1036  7639.16  85.8952
 45.3016  7508.94  85.6714
 45.4996  7563.97  85.9211
 45.6976  7418.9  85.2678
 45.8956  7550.81  85.8413
 46.0936  7637.51  86.3433
 46.2916  7582.7  86.0071
 46.4896  7544.02  85.8204
 46.6876  7443.51  85.968
 46.8856  7415.88  85.0499
 47.0836  7408.4  85.2646
 47.2816  7207.88  83.9844
 47.4796  7429.55  85.3712
 47.6776  7272.47  85.4152
 47.8756  7394.07  85.2902
 48.0736  7301.05  85.2041
 48.2716  7324.35  85.1573
 48.4696  7411  85.2438
 48.6676  7395.7  85.7621
 48.8656  7354.18  85.2401
 49.0636  7443.25  85.6956
 49.2616  7180.62  84.215
 49.4596  7276.91  84.3314
 49.6576  7270.63  84.5199
 49.8556  7265.45  84.5139
 50.0536  7195.39  84.5593
 50.2516  7233.6  84.9161
 50.4496  7213.01  84.4459
 50.6476  7270.59  84.451
 50.8456  7259.79  84.473
 51.0436  7054.68  83.7262
 51.2416  7059.83  83.4222
 51.4396  6828.1  82.4477
 51.6376  6973.79  83.1443
 51.8356  6996.03  82.8923
 52.0336  6930.29  83.0168
 52.2316  6919.07  83.317
 52.4296  6860.88  82.6608
 52.6276  6838.48  82.6344
 52.8256  6939.53  82.8031
 53.0236  6985.33  83.7289
 53.2216  7023.39  83.9962
 53.4196  6912.95  83.2478
 53.6176  6946.69  83.9499
 53.8156  6866.53  83.1273
 54.0136  6610.98  81.7402
 54.2116  6796.91  82.5023
 54.4096  6631.08  81.5694
 54.6076  6583.77  81.6161
 54.8056  6592.02  81.4526
 55.0036  6552.21  81.6051
 55.2016  6597.84  81.4022
 55.3996  6416.81  80.2682
 55.5976  6452.33  80.685
 55.7956  6509.3  80.8616
 55.9936  6581.78  81.4242
 56.1916  6373.1  80.1516
 56.3896  6298.34  79.6728
 56.5876  6337.89  80.4772
 56.7856  6239.15  79.3514
 56.9836  6393.61  80.0907
 57.1816  6386.88  80.4311
 57.3796  6244.57  79.3306
 57.5776  6342.97  79.8574
 57.7756  6222.09  79.7542
 57.9736  6201.63  79.2806
 58.1716  6093.22  78.8524
 58.3696  5983.97  77.9014
 58.5676  5933.26  77.042
 58.7656  5908.31  77.5522
 58.9636  5919.36  77.6508
 59.1616  5910.24  77.722
 59.3596  6052.48  77.907
 59.5576  6092.08  78.2185
 59.7556  5852.91  77.0795
 59.9536  5881.88  77.1702
 60.1516  5835.46  77.6994
 60.1996  0.0000000E+00  0.0000000E+00