File: docs/examples/opeando_xrd/IS17_D/Data/IS17_D/17_Da_f00078.xye
# /beamlines/bl04/projects/cycle2025-II/20250340211-lsimonelli/DATA/IS17_D/17_Da_f00078.xye : mythproc.py merge -s 0.006 -l 0.5 -f /beamlines/bl04/inhouse/ff/FlatField/ff_20Nov2024rod8mm60s_17keV.raw -b True -c true -o xye /beamlines/bl04/projects/cycle2025-II/20250340211-lsimonelli/DATA/IS17_D/17_Da_00078.dat
# IsMon = [6792928, 6791317, 6798856]  IsPos = [-1.5000, -2.4884, -3.4988]
# Wave = 0.4962  CalPath /beamlines/bl04/projects/cycle2025-II/20250340211-lsimonelli/DATA/Align/Si_Pos1_25keV_f00001.cal
# Date = 2025-09-24_15:17:59 Dt = 4.8000  Bin = 0.0060  <imon> = 6794367 +/- 3242 (Min/Max) 6791317 / 6798856
# icurr 253.0390  mocoIn 1.7257E-05  mocoOut 0.8099  i15 7.11095e+06  imon 6.79437e+06  i7 5.3333  iEMpd_timer 4.8000  iEMpd_1 3.3743E-08  iEMpd_2 7.7654E-08  iEMpd_3 1.5757E-08  iEMpd_4 4.5641E-08  iEMhp_timer 4.8000  iEMhp_1 4.9421E-06  iEMhp_2 -2.5330E-08  iEMhp_3 -2.4224E-08  iEMhp_4 -2.0452E-08
#      9776
 1.7416  68957  262.7
 1.9396  44972.1  212.427
 2.1376  31889.4  178.873
 2.3356  28560.3  168.923
 2.5336  28025.2  167.922
 2.7316  24944.9  158.544
 2.9296  23865.5  155.24
 3.1276  23268.9  152.839
 3.3256  23116  152.016
 3.5236  25002.1  157.901
 3.7216  22785.3  151.935
 3.9196  22681.4  150.824
 4.1176  22259.4  149.188
 4.3156  23625.3  153.846
 4.5136  26651.4  162.401
 4.7116  27186.7  165.146
 4.9096  26600  162.796
 5.1076  26097.1  161.823
 5.3056  26541.2  162.91
 5.5036  26112  161.506
 5.7016  26645.8  163.106
 5.8996  27349.6  164.461
 6.0976  28015.9  167.889
 6.2956  28522.6  168.735
 6.4936  29211  169.954
 6.6916  29676.3  172.303
 6.8896  30469.5  174.445
 7.0876  31485.3  177.982
 7.2856  31273.4  176.521
 7.4836  32010.9  177.925
 7.6816  32656  180.244
 7.8796  34286.3  184.675
 8.0776  38616.3  197.01
 8.2756  38242.3  194.619
 8.4736  38317.9  194.634
 8.6716  37787.9  193.941
 8.8696  38198.4  195.448
 9.0676  37408.5  192.766
 9.2656  35309.1  187.969
 9.4636  34892.3  185.262
 9.6616  34265.2  184.356
 9.8596  33071  180.641
 10.0576  31367.2  176.599
 10.2556  29976.1  173.061
 10.4536  32970.6  181.084
 10.6516  35694.9  188.643
 10.8496  27963.2  166.329
 11.0476  27739.2  165.706
 11.2456  30067.3  173.101
 11.4436  26841.5  162.696
 11.6416  26387.4  161.681
 11.8396  24822.9  157.018
 12.0376  24648.6  156.089
 12.2356  26489.9  162.257
 12.4336  25105.9  157.485
 12.6316  23891  153.898
 12.8296  24452.1  155.332
 13.0276  24853.9  156.778
 13.2256  24654.4  156.518
 13.4236  24762.1  156.629
 13.6216  24609.7  156.163
 13.8196  25355.5  158.271
 14.0176  24280.6  155.165
 14.2156  23779.1  152.598
 14.4136  22341.3  149.285
 14.6116  22146.9  147.839
 14.8096  21435.6  145.418
 15.0076  20573.1  146.328
 15.2056  19889.8  139.686
 15.4036  19123.2  137.806
 15.6016  18795.6  135.69
 15.7996  18201.4  133.798
 15.9976  17462.3  134.006
 16.1956  16998.1  130.076
 16.3936  16449  127.139
 16.5916  16634.4  128.491
 16.7896  16579.3  128.334
 16.9876  16310.1  128.782
 17.1856  16177.9  126.628
 17.3836  15386.9  123.394
 17.5816  15303.2  123.547
 17.7796  15327.5  123.577
 17.9776  15451  124.852
 18.1756  16086.6  126.063
 18.3736  16254.4  127.255
 18.5716  14754.5  120.985
 18.7696  14829.2  120.859
 18.9676  14300.2  118.484
 19.1656  14320.9  119.132
 19.3636  14168.5  118.709
 19.5616  14120.9  118.671
 19.7596  14014  117.628
 19.9576  14884  121.278
 20.1556  14016.4  118.213
 20.3536  13813.8  116.732
 20.5516  13409.8  115.458
 20.7496  13020.1  113.623
 20.9476  13373.8  114.994
 21.1456  13877.5  117.475
 21.3436  13083.9  114.021
 21.5416  13138.7  114.256
 21.7396  12837.6  112.786
 21.9376  12936.2  112.976
 22.1356  13138.2  114.149
 22.3336  13128.8  114.253
 22.5316  12930.4  113.46
 22.7296  12799.3  112.24
 22.9276  12732.9  112.635
 23.1256  13075.9  113.601
 23.3236  12750.6  112.744
 23.5216  12858.6  112.869
 23.7196  12636.9  112.061
 23.9176  12389.4  110.499
 24.1156  12325.2  110.677
 24.3136  12093.5  110.462
 24.5116  12113  110.072
 24.7096  11920.5  109.009
 24.9076  11615.7  107.632
 25.1056  11418.2  107.182
 25.3036  11226.9  105.776
 25.5016  11258.8  105.953
 25.6996  11416.9  106.27
 25.8976  11307.1  106.205
 26.0956  11243.9  105.915
 26.2936  11073.3  104.769
 26.4916  11291.6  105.661
 26.6896  10730.6  103.299
 26.8876  10752.3  103.262
 27.0856  10721.8  103.157
 27.2836  10562  102.289
 27.4816  10778.7  103.258
 27.6796  10380.9  101.72
 27.8776  10576.4  102.528
 28.0756  10421.8  102.062
 28.2736  10369.1  101.385
 28.4716  10119.1  100.204
 28.6696  10094.9  99.9255
 28.8676  9891.87  99.2639
 29.0656  9870.31  99.1357
 29.2636  9857.33  98.8709
 29.4616  9741.64  98.4623
 29.6596  9862.26  98.6313
 29.8576  9613.53  98.0683
 30.0556  9770.2  98.7292
 30.2536  9791.07  98.6351
 30.4516  9687.75  97.7588
 30.6496  9732.54  97.7083
 30.8476  9593.83  97.4519
 31.0456  9468.94  96.7849
 31.2436  9490.13  96.1571
 31.4416  9223.37  94.9895
 31.6396  9795.92  97.9455
 31.8376  9359.82  95.2883
 32.0356  9367.5  95.894
 32.2336  9077.91  93.7894
 32.4316  9179.86  94.7089
 32.6296  9210.78  94.7111
 32.8276  9058.72  93.6925
 33.0256  9071.37  93.8326
 33.2236  8983.46  93.5231
 33.4216  9065.1  93.6241
 33.6196  8988.63  93.542
 33.8176  9018.33  93.8553
 34.0156  8830.22  92.4773
 34.2136  8771.62  92.2214
 34.4116  8757.04  92.2931
 34.6096  8782.8  92.3042
 34.8076  8630.77  91.9148
 35.0056  8826.16  92.6353
 35.2036  8596.36  91.6341
 35.4016  8602.98  91.5901
 35.5996  8572.91  91.4655
 35.7976  8504.84  91.372
 35.9956  8513.86  91.0671
 36.1936  8571.86  91.2385
 36.3916  8355.77  90.2675
 36.5896  8563.96  92.3732
 36.7876  8341.14  90.5613
 36.9856  8122.58  89.3912
 37.1836  8250.31  89.1945
 37.3816  8385.46  90.2827
 37.5796  8219.23  91.1225
 37.7776  7976.14  88.1474
 37.9756  8181.32  89.1604
 38.1736  8515.09  91.1514
 38.3716  8235.12  89.9201
 38.5696  8161.51  89.91
 38.7676  7969.61  88.3603
 38.9656  7989.99  88.1106
 39.1636  7993.1  88.3889
 39.3616  8085.74  88.839
 39.5596  7932.62  88.8162
 39.7576  7887.16  87.9451
 39.9556  8120.35  88.8761
 40.1536  8048.44  88.6792
 40.3516  8117.68  89.0744
 40.5496  8094.09  89.2138
 40.7476  8073.38  89.099
 40.9456  8154.17  89.2875
 41.1436  8105.98  88.7439
 41.3416  8074.13  88.9049
 41.5396  7926.16  87.8951
 41.7376  8000.95  88.5751
 41.9356  7939.61  88.0941
 42.1336  7997.14  88.5635
 42.3316  7954.53  88.5229
 42.5296  7826.58  87.3256
 42.7276  7976.66  88.4039
 42.9256  7967.24  88.2179
 43.1236  7809.85  87.4526
 43.3216  7887.08  87.6259
 43.5196  7829.23  87.3788
 43.7176  7749  87.3188
 43.9156  7679.17  86.8232
 44.1136  7697.03  86.479
 44.3116  7648.08  86.2129
 44.5096  7605.92  86.2932
 44.7076  7683.91  86.6626
 44.9056  7736.83  86.8221
 45.1036  7499.92  85.1089
 45.3016  7487.6  85.5364
 45.4996  7370.31  84.8069
 45.6976  7314.28  84.6539
 45.8956  7535.29  85.7667
 46.0936  7553.49  85.6293
 46.2916  7479.65  85.4208
 46.4896  7564.38  85.9533
 46.6876  7352.06  85.4477
 46.8856  7258.34  84.1312
 47.0836  7307.41  84.6797
 47.2816  7194.9  83.9078
 47.4796  7247.02  84.3175
 47.6776  7111.28  84.455
 47.8756  7142.4  83.8241
 48.0736  7103.28  84.0436
 48.2716  7026.32  83.4068
 48.4696  7024.76  83.0013
 48.6676  7075.03  83.8805
 48.8656  7173.37  84.176
 49.0636  7126.69  83.8482
 49.2616  6920.26  82.6691
 49.4596  6934.85  82.3219
 49.6576  7000.54  82.9354
 49.8556  6865.03  82.1508
 50.0536  6899.82  82.8064
 50.2516  6904.54  82.9613
 50.4496  6837.84  82.2219
 50.6476  6872.84  82.1134
 50.8456  6840.05  82.0073
 51.0436  6646.26  81.2687
 51.2416  6714.67  81.3529
 51.4396  6586.5  80.9779
 51.6376  6580.04  80.7656
 51.8356  6647.46  80.8174
 52.0336  6559.61  80.7682
 52.2316  6416.59  80.2277
 52.4296  6550.48  80.7527
 52.6276  6573.77  81.0108
 52.8256  6583.94  80.6364
 53.0236  6507.89  80.8311
 53.2216  6470.16  80.6104
 53.4196  6281.77  79.3731
 53.6176  6399.84  80.5916
 53.8156  6352.17  79.9638
 54.0136  6370.14  80.2314
 54.2116  6361.32  79.8483
 54.4096  6427.23  80.3089
 54.6076  6287.5  79.7737
 54.8056  6293.89  79.6089
 55.0036  6264.35  79.6846
 55.2016  6211.47  78.9517
 55.3996  6252.62  79.2556
 55.5976  6250.53  79.4289
 55.7956  6327.1  79.7323
 55.9936  6229.56  79.2463
 56.1916  6276.81  79.5604
 56.3896  6246.26  79.3597
 56.5876  6159.57  79.3596
 56.7856  6211.63  79.1713
 56.9836  6103.81  78.2738
 57.1816  6193.69  79.2234
 57.3796  6200.69  79.0711
 57.5776  6264.31  79.397
 57.7756  6128.93  79.1721
 57.9736  6196.96  79.2811
 58.1716  6210.74  79.6122
 58.3696  6153.58  78.9933
 58.5676  6225.73  78.934
 58.7656  6220.22  79.5735
 58.9636  6312.75  80.1945
 59.1616  6188.31  79.5262
 59.3596  6271.09  79.2881
 59.5576  6297.88  79.515
 59.7556  6051.67  78.3638
 59.9536  6313.02  79.9347
 60.1516  6169.49  79.8784
 60.1996  0.0000000E+00  0.0000000E+00