File: docs/examples/opeando_xrd/IS17_D/Data/IS17_D/17_Db_f00134.xye
# /beamlines/bl04/projects/cycle2025-II/20250340211-lsimonelli/DATA/IS17_D/17_Db_f00134.xye : mythproc.py merge -s 0.006 -l 0.5 -f /beamlines/bl04/inhouse/ff/FlatField/ff_20Nov2024rod8mm60s_17keV.raw -b True -c true -o xye /beamlines/bl04/projects/cycle2025-II/20250340211-lsimonelli/DATA/IS17_D/17_Db_00134.dat
# IsMon = [6771036, 6775393, 6776536]  IsPos = [-1.4999, -2.4884, -3.4988]
# Wave = 0.4962  CalPath /beamlines/bl04/projects/cycle2025-II/20250340211-lsimonelli/DATA/Align/Si_Pos1_25keV_f00001.cal
# Date = 2025-09-25_07:02:29 Dt = 4.8000  Bin = 0.0060  <imon> = 6774322 +/- 2370 (Min/Max) 6771036 / 6776536
# icurr 252.0047  mocoIn 1.7197E-05  mocoOut 0.8071  i15 7.09679e+06  imon 6.77432e+06  i7 6.0000  iEMpd_timer 4.8000  iEMpd_1 3.5885E-08  iEMpd_2 7.8415E-08  iEMpd_3 1.8096E-08  iEMpd_4 4.9523E-08  iEMhp_timer 4.8000  iEMhp_1 4.9237E-06  iEMhp_2 -2.5943E-08  iEMhp_3 -2.5385E-08  iEMhp_4 -2.2516E-08
#      9776
 1.7416  69972.8  264.664
 1.9396  48379.2  220.359
 2.1376  35474.7  188.687
 2.3356  32024.6  178.9
 2.5336  29746.5  173.026
 2.7316  27021.8  165.003
 2.9296  25903.9  161.703
 3.1276  25453.9  159.843
 3.3256  24503.2  156.477
 3.5236  25988.6  160.948
 3.7216  23972.5  155.834
 3.9196  23752.9  154.307
 4.1176  23611.7  153.654
 4.3156  24466.5  156.565
 4.5136  26876.8  163.071
 4.7116  27944.5  167.421
 4.9096  27215  164.656
 5.1076  26962.9  164.485
 5.3056  26754.5  163.548
 5.5036  26795.7  163.595
 5.7016  27063.3  164.376
 5.8996  27810.6  165.857
 6.0976  28615.5  169.666
 6.2956  28657.6  169.12
 6.4936  29651.9  171.221
 6.6916  29901.8  172.939
 6.8896  30650.3  174.941
 7.0876  31530.9  178.185
 7.2856  31606.4  177.442
 7.4836  31985.3  177.847
 7.6816  32847.2  180.734
 7.8796  33641.8  182.91
 8.0776  35863.9  189.846
 8.2756  37170.1  191.881
 8.4736  37789.4  193.28
 8.6716  37142.7  192.251
 8.8696  37965.6  194.901
 9.0676  37638.4  193.367
 9.2656  36053.2  189.957
 9.4636  35172.6  186.061
 9.6616  34403.5  184.751
 9.8596  33642  182.151
 10.0576  31663  177.366
 10.2556  30919.8  175.751
 10.4536  31448.8  176.828
 10.6516  31984  178.535
 10.8496  28251.7  167.207
 11.0476  27574.3  165.205
 11.2456  28062.1  167.21
 11.4436  27733.9  165.377
 11.6416  26237.7  161.198
 11.8396  25264.8  158.392
 12.0376  24458.8  155.483
 12.2356  24798.3  156.977
 12.4336  24509.4  155.604
 12.6316  24221.2  154.961
 12.8296  24313.2  154.859
 13.0276  24567.6  155.871
 13.2256  24715.5  156.712
 13.4236  24649.3  156.263
 13.6216  24834.6  156.865
 13.8196  27455.1  164.361
 14.0176  24049  154.425
 14.2156  23519  151.749
 14.4136  22268.8  149.044
 14.6116  22035.9  147.462
 14.8096  21193.9  144.588
 15.0076  20395.6  145.745
 15.2056  19330.8  137.694
 15.4036  18430.8  135.268
 15.6016  18154.3  133.35
 15.7996  17725  132.027
 15.9976  17411.2  133.753
 16.1956  17100.6  130.469
 16.3936  16812.8  128.542
 16.5916  16641.9  128.534
 16.7896  16639.6  128.573
 16.9876  16332.2  128.849
 17.1856  16130.5  126.423
 17.3836  15553.1  124.055
 17.5816  15551.2  124.533
 17.7796  15390.9  123.815
 17.9776  15172.9  123.717
 18.1756  15468.1  123.632
 18.3736  15163  122.898
 18.5716  14617.2  120.413
 18.7696  14559.6  119.736
 18.9676  14464.2  119.148
 19.1656  14196.3  118.625
 19.3636  14159.5  118.668
 19.5616  14124.3  118.692
 19.7596  14377.2  119.148
 19.9576  14855.8  121.157
 20.1556  13754.5  117.086
 20.3536  13650.8  116.043
 20.5516  13499.3  115.834
 20.7496  13208.4  114.524
 20.9476  13320.8  114.772
 21.1456  13184.1  114.497
 21.3436  13005.5  113.667
 21.5416  12859.4  113.043
 21.7396  12813.1  112.685
 21.9376  12778.6  112.301
 22.1356  12949.7  113.172
 22.3336  12556.9  111.72
 22.5316  12509.4  111.597
 22.7296  12523.7  111.034
 22.9276  12423.7  111.251
 23.1256  12559.6  111.335
 23.3236  12760.6  112.817
 23.5216  12731  112.311
 23.7196  12508.3  111.279
 23.9176  12590.6  111.396
 24.1156  12522.6  111.558
 24.3136  12052.1  110.254
 24.5116  12093.5  109.963
 24.7096  11872.4  108.77
 24.9076  11763.4  108.3
 25.1056  11442.2  107.273
 25.3036  11172.9  105.508
 25.5016  11128  105.331
 25.6996  11213.1  105.315
 25.8976  11201.5  105.701
 26.0956  11062.2  105.051
 26.2936  11018.5  104.498
 26.4916  11228.9  105.351
 26.6896  10856.9  103.897
 26.8876  10713.5  103.074
 27.0856  10603.9  102.594
 27.2836  10548  102.218
 27.4816  10454.1  101.7
 27.6796  10322.3  101.412
 27.8776  10624.7  102.759
 28.0756  10253.7  101.23
 28.2736  10208.7  100.594
 28.4716  9940.75  99.3123
 28.6696  10035.9  99.6274
 28.8676  9955.4  99.5885
 29.0656  9745.05  98.5062
 29.2636  9874.85  98.951
 29.4616  9408.22  96.7562
 29.6596  9494.62  96.769
 29.8576  9356.68  96.7407
 30.0556  9410.03  96.89
 30.2536  9465.28  96.9703
 30.4516  9591.03  97.2749
 30.6496  9524.43  96.6626
 30.8476  9398.65  96.4675
 31.0456  9600.74  97.4544
 31.2436  9524.69  96.345
 31.4416  9411.26  95.9363
 31.6396  9705.92  97.4845
 31.8376  9619.24  96.5567
 32.0356  9466.93  96.371
 32.2336  9327.62  95.0595
 32.4316  9046.07  94.0044
 32.6296  9016.04  93.6935
 32.8276  9119.95  94.0148
 33.0256  9022.07  93.5733
 33.2236  9065.19  93.952
 33.4216  8934.07  92.9428
 33.6196  8905.36  93.0906
 33.8176  8909.81  93.2844
 34.0156  8714.02  91.8791
 34.2136  8885.82  92.8127
 34.4116  8662.67  91.7943
 34.6096  8671.75  91.7254
 34.8076  8544.39  91.4664
 35.0056  8600.18  91.4244
 35.2036  8788.33  92.6581
 35.4016  8483.67  90.9329
 35.5996  8541.52  91.2924
 35.7976  8477.98  91.2084
 35.9956  8663.6  91.8607
 36.1936  8567.49  91.1984
 36.3916  8413.78  90.5735
 36.5896  8350.33  91.2295
 36.7876  8164.17  89.5857
 36.9856  8099.65  89.2585
 37.1836  8120.18  88.4798
 37.3816  8173.61  89.1364
 37.5796  8071.9  90.3121
 37.7776  8288.77  89.8708
 37.9756  8222.47  89.3963
 38.1736  8314.27  90.0863
 38.3716  8212.8  89.796
 38.5696  8116.68  89.6503
 38.7676  8056.25  88.831
 38.9656  7975.04  88.0119
 39.1636  8111.96  89.035
 39.3616  8072.8  88.7548
 39.5596  7967.21  89.011
 39.7576  7911.49  88.0865
 39.9556  8073.03  88.6142
 40.1536  8151.52  89.2456
 40.3516  8132.71  89.1501
 40.5496  7953.6  88.4194
 40.7476  8039.63  88.9041
 40.9456  8041.52  88.6704
 41.1436  8074.75  88.5708
 41.3416  7948.44  88.2089
 41.5396  7979.89  88.1913
 41.7376  8069.01  88.948
 41.9356  7864.6  87.6733
 42.1336  8234.58  89.8588
 42.3316  7952.84  88.5006
 42.5296  7864.77  87.5354
 42.7276  7910.3  88.0268
 42.9256  7871.95  87.6908
 43.1236  7747.85  87.1017
 43.3216  7949.19  87.9663
 43.5196  7731.94  86.8269
 43.7176  7874.89  88.0135
 43.9156  7686.98  86.8693
 44.1136  7558.28  85.6948
 44.3116  7617.4  86.038
 44.5096  7536.43  85.8923
 44.7076  7608.17  86.2308
 44.9056  7843.42  87.4318
 45.1036  7777.07  86.6741
 45.3016  7617.97  86.294
 45.4996  7569.49  85.9518
 45.6976  7587.18  86.2302
 45.8956  7671.66  86.5271
 46.0936  7720.25  86.81
 46.2916  7664.99  86.477
 46.4896  7614.24  86.2111
 46.6876  7490.49  86.2335
 46.8856  7490.88  85.4799
 47.0836  7606.9  86.4009
 47.2816  7497.51  85.6508
 47.4796  7441.33  85.4352
 47.6776  7430.5  86.3365
 47.8756  7433.85  85.5169
 48.0736  7517.19  86.4628
 48.2716  7331.49  85.1977
 48.4696  7537.37  85.9663
 48.6676  7540.81  86.5937
 48.8656  7468.36  85.8976
 49.0636  7515.91  86.1237
 49.2616  7392.46  85.4416
 49.4596  7395.44  85.0009
 49.6576  7442.56  85.5149
 49.8556  7427.88  85.4527
 50.0536  7409.47  85.8043
 50.2516  7373.61  85.7285
 50.4496  7271.08  84.7815
 50.6476  7435.54  85.4074
 50.8456  7287.45  84.6411
 51.0436  7101.38  83.9945
 51.2416  7049.86  83.3606
 51.4396  6971.1  83.3028
 51.6376  7060.64  83.6528
 51.8356  7108.04  83.5465
 52.0336  7100.43  84.0434
 52.2316  7053.61  84.1243
 52.4296  6985.82  83.4112
 52.6276  6911.17  83.0728
 52.8256  7136  83.9713
 53.0236  7112.04  84.4848
 53.2216  7117.47  84.5593
 53.4196  6926.69  83.3206
 53.6176  6949.25  83.9658
 53.8156  7009.19  83.9902
 54.0136  6788.58  82.8246
 54.2116  6821.75  82.6609
 54.4096  6672.93  81.8234
 54.6076  6686.3  82.2467
 54.8056  6601.26  81.4968
 55.0036  6588.2  81.8248
 55.2016  6764.45  82.4333
 55.3996  6524.97  80.9419
 55.5976  6563.44  81.378
 55.7956  6553.06  81.1233
 55.9936  6651.99  81.8618
 56.1916  6489.54  80.8889
 56.3896  6342.33  79.9414
 56.5876  6439.68  81.121
 56.7856  6465.47  80.7827
 56.9836  6434.18  80.3487
 57.1816  6495.09  81.0943
 57.3796  6321.76  79.8197
 57.5776  6315.6  79.6394
 57.7756  6204.36  79.6334
 57.9736  6298.46  79.8852
 58.1716  6205.55  79.5761
 58.3696  5955.23  77.7087
 58.5676  6101.31  78.1299
 58.7656  6094.21  78.7577
 58.9636  6014.35  78.2672
 59.1616  6069.95  78.7632
 59.3596  6034.52  77.7913
 59.5576  6171.61  78.727
 59.7556  6030.06  78.2368
 59.9536  6109.82  78.6508
 60.1516  6074.96  79.2773
 60.1996  0.0000000E+00  0.0000000E+00