File: docs/examples/opeando_xrd/IS17_D/Data/IS17_D/17_Db_f00010.xye
# /beamlines/bl04/projects/cycle2025-II/20250340211-lsimonelli/DATA/IS17_D/17_Db_f00010.xye : mythproc.py merge -s 0.006 -l 0.5 -f /beamlines/bl04/inhouse/ff/FlatField/ff_20Nov2024rod8mm60s_17keV.raw -b True -c true -o xye /beamlines/bl04/projects/cycle2025-II/20250340211-lsimonelli/DATA/IS17_D/17_Db_00010.dat
# IsMon = [6751976, 6753978, 6752707]  IsPos = [-1.5000, -2.4885, -3.4988]
# Wave = 0.4962  CalPath /beamlines/bl04/projects/cycle2025-II/20250340211-lsimonelli/DATA/Align/Si_Pos1_25keV_f00001.cal
# Date = 2025-09-23_20:28:26 Dt = 4.8000  Bin = 0.0060  <imon> = 6752887 +/- 827 (Min/Max) 6751976 / 6753978
# icurr 250.6074  mocoIn 1.7097E-05  mocoOut 0.8017  i15 7.07319e+06  imon 6.75289e+06  i7 6.0000  iEMpd_timer 4.8000  iEMpd_1 3.4036E-08  iEMpd_2 7.8130E-08  iEMpd_3 1.6864E-08  iEMpd_4 4.8621E-08  iEMhp_timer 4.8000  iEMhp_1 4.8968E-06  iEMhp_2 -2.4390E-08  iEMhp_3 -2.2680E-08  iEMhp_4 -2.0935E-08
#      9776
 1.7416  68521.9  261.86
 1.9396  46553.1  216.116
 2.1376  33950  184.555
 2.3356  30272.2  173.906
 2.5336  30949.1  176.458
 2.7316  25843.5  161.349
 2.9296  24350.4  156.767
 3.1276  23982.9  155.137
 3.3256  23195.5  152.238
 3.5236  25074.3  158.23
 3.7216  22694.4  151.616
 3.9196  22562.7  150.4
 4.1176  22179.9  148.909
 4.3156  23060.3  152.009
 4.5136  26053.9  160.553
 4.7116  26843.6  164.095
 4.9096  25800.6  160.322
 5.1076  25446.4  159.785
 5.3056  25536.4  159.794
 5.5036  25245.1  158.877
 5.7016  25447.6  159.387
 5.8996  25910  160.088
 6.0976  26823.8  164.258
 6.2956  26887.8  163.824
 6.4936  27829.6  165.877
 6.6916  28167.7  167.853
 6.8896  29249.3  170.889
 7.0876  30328.4  174.661
 7.2856  29629.3  171.803
 7.4836  30390.7  173.357
 7.6816  31292.6  176.407
 7.8796  31858.9  178.016
 8.0776  35376.1  188.567
 8.2756  35991.3  188.832
 8.4736  35686.9  187.838
 8.6716  35373.2  187.626
 8.8696  36785.2  191.849
 9.0676  35934.3  188.95
 9.2656  33973.7  184.4
 9.4636  33137.1  180.608
 9.6616  31920.9  177.973
 9.8596  31479  176.184
 10.0576  29648.7  171.64
 10.2556  28607.4  169.037
 10.4536  32352.2  179.332
 10.6516  33012.2  181.385
 10.8496  26149.4  160.859
 11.0476  25997.3  160.36
 11.2456  28561.9  168.691
 11.4436  25225.2  157.725
 11.6416  24524.7  155.852
 11.8396  23767.5  153.624
 12.0376  22955.7  150.612
 12.2356  24467.4  155.959
 12.4336  23283.7  151.66
 12.6316  22685.8  149.963
 12.8296  23142.6  151.071
 13.0276  23175.8  151.396
 13.2256  23022.8  151.248
 13.4236  23056.9  151.138
 13.6216  23606.3  152.924
 13.8196  26247.9  160.7
 14.0176  22619.1  149.768
 14.2156  22292.6  147.741
 14.4136  21140.3  145.213
 14.6116  20856.2  143.451
 14.8096  19865.7  139.988
 15.0076  19291.8  141.741
 15.2056  18080.8  133.182
 15.4036  17622.1  132.282
 15.6016  17233.8  129.937
 15.7996  16836.5  128.699
 15.9976  16355.9  129.649
 16.1956  16173.5  126.869
 16.3936  15795.3  124.582
 16.5916  15723.7  124.93
 16.7896  15465  123.955
 16.9876  15414.2  125.172
 17.1856  15431.3  123.648
 17.3836  14685.7  120.535
 17.5816  14442.2  120
 17.7796  14600.7  120.583
 17.9776  14395.3  120.504
 18.1756  15782.1  124.875
 18.3736  15203  123.049
 18.5716  13799.5  117
 18.7696  13796.8  116.564
 18.9676  13526.7  115.217
 19.1656  13228.8  114.515
 19.3636  13205.8  114.597
 19.5616  13109.2  114.343
 19.7596  13428.2  115.141
 19.9576  14047.3  117.801
 20.1556  13026.9  113.954
 20.3536  12979.1  113.152
 20.5516  12566.5  111.758
 20.7496  12433.4  111.026
 20.9476  12809.8  112.537
 21.1456  12793.2  112.787
 21.3436  12151.3  109.877
 21.5416  12235.4  110.264
 21.7396  12051  109.282
 21.9376  12173  109.612
 22.1356  12632  111.928
 22.3336  11991.5  109.167
 22.5316  11858.5  108.669
 22.7296  11767.2  107.635
 22.9276  11520.3  107.139
 23.1256  12078.6  109.199
 23.3236  11935.4  109.107
 23.5216  11866.4  108.423
 23.7196  12074.4  109.549
 23.9176  11843.6  108.039
 24.1156  11795.1  108.278
 24.3136  11512  107.746
 24.5116  11644.6  107.899
 24.7096  11472.6  106.904
 24.9076  11285.1  106.062
 25.1056  11056.8  105.171
 25.3036  10636  102.946
 25.5016  10678.4  103.189
 25.6996  10592.4  102.363
 25.8976  10843.1  103.998
 26.0956  10547.6  102.578
 26.2936  10569  102.348
 26.4916  10764.9  103.159
 26.6896  10364.9  101.521
 26.8876  10225.8  100.697
 27.0856  10135.5  100.261
 27.2836  9871.26  98.8821
 27.4816  10055.1  99.7416
 27.6796  9808.74  98.8594
 27.8776  10334.5  101.333
 28.0756  9640.76  98.1568
 28.2736  9825.96  98.6901
 28.4716  9667.18  97.9408
 28.6696  9547.77  97.1772
 28.8676  9419.5  96.8711
 29.0656  9348.69  96.4794
 29.2636  9533.38  97.1426
 29.4616  8939.27  94.3228
 29.6596  9077.79  94.6294
 29.8576  8911.27  94.4201
 30.0556  8992.44  94.7303
 30.2536  8985.9  94.4949
 30.4516  9212.44  95.3313
 30.6496  9151.64  94.7375
 30.8476  9129.22  95.0782
 31.0456  9186.88  95.3383
 31.2436  9137.9  94.3563
 31.4416  8951.79  93.5661
 31.6396  9318.58  95.5072
 31.8376  8989.07  93.3344
 32.0356  8872.39  93.2785
 32.2336  8976.93  93.245
 32.4316  8650.53  91.9291
 32.6296  8581.86  91.3328
 32.8276  8558.58  91.0767
 33.0256  8601.75  91.3629
 33.2236  8576.9  91.3767
 33.4216  8523.82  90.7918
 33.6196  8430.27  90.5741
 33.8176  8505.66  91.1396
 34.0156  8286.65  89.6002
 34.2136  8459.57  90.5592
 34.4116  8238.51  89.5267
 34.6096  8324.74  89.8727
 34.8076  8144.77  89.3012
 35.0056  8324.67  89.9541
 35.2036  8302.22  90.0596
 35.4016  8142.55  89.0952
 35.5996  8085.07  88.8129
 35.7976  8055.95  88.9239
 35.9956  8228.37  89.5299
 36.1936  8222.25  89.3431
 36.3916  7988.61  88.2604
 36.5896  8194.56  90.8388
 36.7876  7875.04  87.9939
 36.9856  7716.53  87.1337
 37.1836  7730.39  86.3392
 37.3816  7736.64  86.7284
 37.5796  7861.1  89.1196
 37.7776  7770.2  87.0125
 37.9756  7915.61  87.7107
 38.1736  7990.59  88.3099
 38.3716  7904.51  88.1007
 38.5696  7662.99  87.1189
 38.7676  7597.51  86.251
 38.9656  7724.35  86.6149
 39.1636  7667.52  86.5302
 39.3616  7758.34  87.0051
 39.5596  7654.27  87.2537
 39.7576  7502.12  85.7772
 39.9556  7670.82  86.3812
 40.1536  7740.42  86.9674
 40.3516  7690.3  86.6973
 40.5496  7660.92  86.565
 40.7476  7734  87.1863
 40.9456  7823.75  87.4584
 41.1436  7706.99  86.5268
 41.3416  7595.59  86.2288
 41.5396  7627.43  86.2208
 41.7376  7633.61  86.5136
 41.9356  7481.54  85.5041
 42.1336  7741.03  87.1175
 42.3316  7639.88  86.7525
 42.5296  7549.51  85.7552
 42.7276  7512.15  85.7894
 42.9256  7635.17  86.355
 43.1236  7383.96  85.0221
 43.3216  7552.96  85.8395
 43.5196  7448.24  85.2147
 43.7176  7474.37  85.7517
 43.9156  7183.78  83.9878
 44.1136  7280.82  84.115
 44.3116  7412  84.8831
 44.5096  7381.49  85.0124
 44.7076  7219.04  84.0041
 44.9056  7475.48  85.356
 45.1036  7392.21  84.5067
 45.3016  7451.47  85.3428
 45.4996  7265.12  84.2064
 45.6976  7233.4  84.202
 45.8956  7256.27  84.1438
 46.0936  7373.4  84.5751
 46.2916  7381.19  84.8367
 46.4896  7356.73  84.7196
 46.6876  7459.93  86.0474
 46.8856  7247.66  84.0847
 47.0836  7191.45  84.0077
 47.2816  7160.88  83.7025
 47.4796  7173.59  83.8812
 47.6776  7068.62  84.2101
 47.8756  7166.62  83.9674
 48.0736  7150.38  84.3262
 48.2716  7112.19  83.9108
 48.4696  7120.68  83.5494
 48.6676  7182.64  84.5117
 48.8656  7209.2  84.3951
 49.0636  7261.89  84.643
 49.2616  6970.6  82.9679
 49.4596  7112.43  83.3568
 49.6576  7056.31  83.2734
 49.8556  7016.41  83.0517
 50.0536  7090.14  83.9279
 50.2516  7061.19  83.8692
 50.4496  7023.18  83.3204
 50.6476  6984.2  82.7765
 50.8456  7061.76  83.3227
 51.0436  6904.83  82.8324
 51.2416  6823.45  82.0213
 51.4396  6663.23  81.449
 51.6376  6783.49  81.9999
 51.8356  6697.29  81.1112
 52.0336  6758.24  81.9873
 52.2316  6770.08  82.4222
 52.4296  6626.7  81.2473
 52.6276  6735.41  82.0143
 52.8256  6799.58  81.9682
 53.0236  6808.91  82.6602
 53.2216  6685.55  81.9197
 53.4196  6654.63  81.6674
 53.6176  6817.96  83.156
 53.8156  6652.9  81.8211
 54.0136  6444.69  80.6948
 54.2116  6591.56  81.2422
 54.4096  6449.7  80.4465
 54.6076  6391.32  80.4083
 54.8056  6282.44  79.4978
 55.0036  6491.63  81.0737
 55.2016  6289.7  79.4055
 55.3996  6233.8  79.1089
 55.5976  6274.08  79.5668
 55.7956  6280.84  79.4246
 55.9936  6307.44  79.7157
 56.1916  6216.53  79.1565
 56.3896  6188.25  78.9665
 56.5876  6073.64  78.7714
 56.7856  6105.3  78.4913
 56.9836  6180.98  78.7414
 57.1816  6222.91  79.372
 57.3796  6050.35  78.0897
 57.5776  6130.62  78.4866
 57.7756  5991.53  78.2409
 57.9736  5900.9  77.3351
 58.1716  5953.1  77.943
 58.3696  5732.71  76.2474
 58.5676  5793.85  76.1355
 58.7656  5763.07  76.5939
 58.9636  5802.62  76.8874
 59.1616  5784.76  76.8965
 59.3596  5797.94  76.2647
 59.5576  5870.18  76.794
 59.7556  5709.16  76.1401
 59.9536  5818.72  76.7679
 60.1516  5594.92  76.0941
 60.1996  0.0000000E+00  0.0000000E+00