File: docs/examples/opeando_xrd/IS17_D/Data/IS17_D/17_Db_f00038.xye
# /beamlines/bl04/projects/cycle2025-II/20250340211-lsimonelli/DATA/IS17_D/17_Db_f00038.xye : mythproc.py merge -s 0.006 -l 0.5 -f /beamlines/bl04/inhouse/ff/FlatField/ff_20Nov2024rod8mm60s_17keV.raw -b True -c true -o xye /beamlines/bl04/projects/cycle2025-II/20250340211-lsimonelli/DATA/IS17_D/17_Db_00038.dat
# IsMon = [6746794, 6765527, 6786024]  IsPos = [-1.4999, -2.4885, -3.4986]
# Wave = 0.4962  CalPath /beamlines/bl04/projects/cycle2025-II/20250340211-lsimonelli/DATA/Align/Si_Pos1_25keV_f00001.cal
# Date = 2025-09-24_04:16:57 Dt = 4.8000  Bin = 0.0060  <imon> = 6766115 +/- 16021 (Min/Max) 6746794 / 6786024
# icurr 250.1984  mocoIn 1.7083E-05  mocoOut 0.8009  i15 7.08591e+06  imon 6.76612e+06  i7 3.6667  iEMpd_timer 4.8000  iEMpd_1 3.4113E-08  iEMpd_2 7.7275E-08  iEMpd_3 1.4650E-08  iEMpd_4 4.7724E-08  iEMhp_timer 4.8000  iEMhp_1 4.9024E-06  iEMhp_2 -2.5063E-08  iEMhp_3 -2.3955E-08  iEMhp_4 -2.2402E-08
#      9776
 1.7416  70377.7  265.744
 1.9396  48898.5  221.802
 2.1376  35689.4  189.482
 2.3356  32277.4  179.818
 2.5336  29428.4  172.303
 2.7316  27416.8  166.314
 2.9296  26289.4  163.019
 3.1276  25794.1  161.045
 3.3256  24806  157.521
 3.5236  26470.7  162.71
 3.7216  24161.3  156.449
 3.9196  23481.1  153.443
 4.1176  23392.1  152.982
 4.3156  24344.2  156.125
 4.5136  26743.9  162.673
 4.7116  27743.3  166.826
 4.9096  26941.9  163.829
 5.1076  26720.3  163.794
 5.3056  26788.8  163.552
 5.5036  26221.6  161.795
 5.7016  26592.7  162.944
 5.8996  27171.9  163.943
 6.0976  28017.9  167.933
 6.2956  28180.6  167.67
 6.4936  28914.1  169.082
 6.6916  29320  171.253
 6.8896  29937.1  172.899
 7.0876  30979.4  176.622
 7.2856  30784.3  175.123
 7.4836  31051.4  175.234
 7.6816  31969.7  178.313
 7.8796  32365.4  179.302
 8.0776  34142.1  185.124
 8.2756  35501.2  187.366
 8.4736  36414.9  189.622
 8.6716  35215.1  187.129
 8.8696  36102.7  190.052
 9.0676  35245.2  187.119
 9.2656  33728.2  183.73
 9.4636  33130.3  180.496
 9.6616  32260  178.824
 9.8596  31672.3  176.857
 10.0576  29725.9  171.946
 10.2556  28871.6  169.941
 10.4536  27850.7  166.515
 10.6516  27078.4  164.395
 10.8496  26170.8  160.929
 11.0476  25203.4  157.902
 11.2456  24388.7  155.879
 11.4436  24679.3  156.013
 11.6416  25943.3  160.295
 11.8396  23867.9  154
 12.0376  23258  151.567
 12.2356  22818.3  150.617
 12.4336  22818.2  150.144
 12.6316  22873.7  150.633
 12.8296  23009.6  150.656
 13.0276  23206.7  151.455
 13.2256  23576.6  153.061
 13.4236  23547.5  152.737
 13.6216  23883.3  153.877
 13.8196  26012  160.01
 14.0176  22911.9  150.693
 14.2156  22459.9  148.298
 14.4136  21398.4  146.1
 14.6116  21244.1  144.787
 14.8096  20421.6  141.879
 15.0076  19565  142.791
 15.2056  18528.9  134.729
 15.4036  17803.5  132.878
 15.6016  17421.8  130.555
 15.7996  16869  128.702
 15.9976  16667.2  130.844
 16.1956  16426.5  127.864
 16.3936  15887.1  124.941
 16.5916  15756  125.06
 16.7896  15865.3  125.552
 16.9876  15661.6  126.196
 17.1856  15385.3  123.526
 17.3836  15094.4  122.293
 17.5816  14578.9  120.651
 17.7796  14421.1  119.93
 17.9776  14005.5  118.864
 18.1756  13990.1  117.577
 18.3736  13701.1  116.823
 18.5716  13758.1  116.829
 18.7696  13577  115.624
 18.9676  13463  114.995
 19.1656  13232.8  114.493
 19.3636  13169.4  114.449
 19.5616  13172.3  114.623
 19.7596  13380.5  114.981
 19.9576  13461.7  115.329
 20.1556  14244.6  119.136
 20.3536  13330  114.671
 20.5516  12921.8  113.332
 20.7496  12561.9  111.683
 20.9476  12617  111.734
 21.1456  12501.1  111.464
 21.3436  12389.4  110.944
 21.5416  12266.4  110.41
 21.7396  12070.1  109.368
 21.9376  11989.1  108.78
 22.1356  12079.3  109.163
 22.3336  11839.5  108.399
 22.5316  11925.2  108.9
 22.7296  11795.1  107.686
 22.9276  11837.2  108.529
 23.1256  12054.7  108.985
 23.3236  12391.7  111.17
 23.5216  12179.9  109.856
 23.7196  12055.6  109.25
 23.9176  12028.8  108.933
 24.1156  11848.4  108.523
 24.3136  11469.6  107.63
 24.5116  11546.5  107.51
 24.7096  11223.3  105.826
 24.9076  11026.9  104.948
 25.1056  10882  104.386
 25.3036  10547.9  102.517
 25.5016  10694.3  103.266
 25.6996  10546.8  102.144
 25.8976  10655.8  103.124
 26.0956  10509.1  102.353
 26.2936  10479.3  101.919
 26.4916  10799.3  103.326
 26.6896  10393.9  101.662
 26.8876  10353.7  101.356
 27.0856  10138.7  100.288
 27.2836  9981.23  99.5556
 27.4816  9873.29  98.8335
 27.6796  9949.03  99.567
 27.8776  10071.6  100.068
 28.0756  9707.9  98.4764
 28.2736  9712.09  98.118
 28.4716  9456.74  96.8699
 28.6696  9464.86  96.76
 28.8676  9414.71  96.8486
 29.0656  9330.2  96.3852
 29.2636  9382.61  96.4079
 29.4616  9000.48  94.5734
 29.6596  8947.41  93.884
 29.8576  8862.3  94.0961
 30.0556  8860.37  93.9445
 30.2536  9025.8  94.6403
 30.4516  9151.25  95.0153
 30.6496  9238.29  95.1975
 30.8476  9070.62  94.7658
 31.0456  9173.57  95.3087
 31.2436  9087.75  94.1406
 31.4416  8842.42  93.0626
 31.6396  8996.63  93.9141
 31.8376  8918.18  93.028
 32.0356  8903.32  93.5189
 32.2336  8812.44  92.4806
 32.4316  8684.34  92.1163
 32.6296  8717.07  92.056
 32.8276  8645.01  91.5387
 33.0256  8551.98  91.0996
 33.2236  8690.17  92.0076
 33.4216  8443.55  90.3314
 33.6196  8550.78  91.2234
 33.8176  8533.17  91.2898
 34.0156  8439.03  90.4225
 34.2136  8462.57  90.6019
 34.4116  8205.75  89.3212
 34.6096  8298.47  89.7307
 34.8076  8193.35  89.567
 35.0056  8263.53  89.6244
 35.2036  8422.43  90.7364
 35.4016  8160.04  89.1702
 35.5996  8117.29  88.999
 35.7976  8169.24  89.5535
 35.9956  8229.83  89.5285
 36.1936  8203.09  89.2513
 36.3916  7959.59  88.1016
 36.5896  7929.25  89.3897
 36.7876  7811.36  87.5795
 36.9856  7693.74  86.9445
 37.1836  7727.12  86.26
 37.3816  7740.69  86.6704
 37.5796  7832.46  88.9567
 37.7776  7895.59  87.7435
 37.9756  7862.03  87.4404
 38.1736  7895.91  87.7868
 38.3716  7749.49  87.2271
 38.5696  7606.62  86.7898
 38.7676  7633.32  86.5279
 38.9656  7726.94  86.6986
 39.1636  7665.39  86.5817
 39.3616  7663.77  86.5181
 39.5596  7597.67  86.9197
 39.7576  7568.76  86.1571
 39.9556  7743.62  86.7927
 40.1536  7715.27  86.827
 40.3516  7692.25  86.7615
 40.5496  7707.07  86.8341
 40.7476  7705  87.0319
 40.9456  7706.56  86.8017
 41.1436  7749.91  86.7986
 41.3416  7579.23  86.1161
 41.5396  7581.05  85.9546
 41.7376  7557.92  86.0834
 41.9356  7612.71  86.2555
 42.1336  7746.48  87.1818
 42.3316  7512.87  86.0018
 42.5296  7635.34  86.2467
 42.7276  7577.04  86.1619
 42.9256  7564.05  85.9585
 43.1236  7517.11  85.7948
 43.3216  7439.29  85.2011
 43.5196  7454.46  85.2735
 43.7176  7498.78  85.889
 43.9156  7337.67  84.8236
 44.1136  7271.08  84.0023
 44.3116  7278.94  84.0405
 44.5096  7346.66  84.7539
 44.7076  7371.66  84.8292
 44.9056  7557.04  85.8167
 45.1036  7430.39  84.7148
 45.3016  7376.65  84.9089
 45.4996  7193.91  83.7938
 45.6976  7141.14  83.6207
 45.8956  7301.39  84.4655
 46.0936  7463.94  85.4259
 46.2916  7336.93  84.6619
 46.4896  7407.64  85.0898
 46.6876  7173.24  84.442
 46.8856  7208.65  83.9408
 47.0836  7153.44  83.8158
 47.2816  7131.27  83.5363
 47.4796  7157.41  83.7894
 47.6776  7219.46  85.1067
 47.8756  7176.31  84.0231
 48.0736  7210.97  84.6862
 48.2716  7074.29  83.6721
 48.4696  7360.56  84.9528
 48.6676  7105.32  84.0583
 48.8656  7095.46  83.7278
 49.0636  7294.7  84.8756
 49.2616  7043.99  83.3835
 49.4596  7015.66  82.8028
 49.6576  7057.55  83.2801
 49.8556  7046.01  83.2279
 50.0536  7105.33  84.0261
 50.2516  7006.85  83.5485
 50.4496  7071.69  83.6148
 50.6476  7077.97  83.3284
 50.8456  7008.67  83.0093
 51.0436  6766.36  81.9439
 51.2416  6849.24  82.0981
 51.4396  6706.17  81.6572
 51.6376  6751.54  81.7704
 51.8356  6770.28  81.515
 52.0336  6754.22  81.9636
 52.2316  6749.92  82.2971
 52.4296  6752.69  81.9732
 52.6276  6706.6  81.7986
 52.8256  6840.07  82.2082
 53.0236  6847.31  82.9527
 53.2216  6774.63  82.5512
 53.4196  6820.07  82.7317
 53.6176  6644.76  82.1595
 53.8156  6827.31  82.9495
 54.0136  6485.35  80.924
 54.2116  6583.83  81.2329
 54.4096  6304.21  79.5248
 54.6076  6372.79  80.3008
 54.8056  6311.7  79.7073
 55.0036  6312.31  80.1062
 55.2016  6426.97  80.3762
 55.3996  6233.87  79.0957
 55.5976  6298.84  79.7088
 55.7956  6289.27  79.4511
 55.9936  6366.88  80.135
 56.1916  6200.95  79.0689
 56.3896  6089.57  78.3207
 56.5876  6097.77  78.941
 56.7856  6158.69  78.8313
 56.9836  6164.82  78.6686
 57.1816  6206.94  79.2876
 57.3796  6013.55  77.8013
 57.5776  6181.54  78.8303
 57.7756  6053.79  78.6651
 57.9736  6007.72  78.0256
 58.1716  5951.22  77.9015
 58.3696  5706.74  76.0408
 58.5676  5850.31  76.4758
 58.7656  5673.43  75.9462
 58.9636  5796.65  76.7922
 59.1616  5710.72  76.3461
 59.3596  5741.56  75.7803
 59.5576  5772.41  76.039
 59.7556  5662.8  75.718
 59.9536  5822.17  76.6769
 60.1516  5785.49  77.2646
 60.1996  0.0000000E+00  0.0000000E+00