File: docs/examples/opeando_xrd/IS17_D/Data/IS17_D/17_Db_f00039.xye
# /beamlines/bl04/projects/cycle2025-II/20250340211-lsimonelli/DATA/IS17_D/17_Db_f00039.xye : mythproc.py merge -s 0.006 -l 0.5 -f /beamlines/bl04/inhouse/ff/FlatField/ff_20Nov2024rod8mm60s_17keV.raw -b True -c true -o xye /beamlines/bl04/projects/cycle2025-II/20250340211-lsimonelli/DATA/IS17_D/17_Db_00039.dat
# IsMon = [6751647, 6747406, 6746194]  IsPos = [-1.4999, -2.4885, -3.4988]
# Wave = 0.4962  CalPath /beamlines/bl04/projects/cycle2025-II/20250340211-lsimonelli/DATA/Align/Si_Pos1_25keV_f00001.cal
# Date = 2025-09-24_04:33:32 Dt = 4.8000  Bin = 0.0060  <imon> = 6748416 +/- 2338 (Min/Max) 6746194 / 6751647
# icurr 249.3049  mocoIn 1.7016E-05  mocoOut 0.7985  i15 7.06719e+06  imon 6.74842e+06  i7 4.3333  iEMpd_timer 4.8000  iEMpd_1 3.4974E-08  iEMpd_2 7.8307E-08  iEMpd_3 1.6430E-08  iEMpd_4 4.8159E-08  iEMhp_timer 4.8000  iEMhp_1 4.8723E-06  iEMhp_2 -2.4832E-08  iEMhp_3 -2.3315E-08  iEMhp_4 -2.2399E-08
#      9776
 1.7416  71081.2  266.623
 1.9396  48518.6  220.566
 2.1376  35773.4  189.387
 2.3356  31852.6  178.333
 2.5336  29662.2  172.698
 2.7316  27313.4  165.863
 2.9296  26316.6  162.968
 3.1276  25837.7  161.002
 3.3256  24688.7  157.058
 3.5236  26419.8  162.409
 3.7216  23913.3  155.641
 3.9196  23398.8  153.168
 4.1176  23188.1  152.247
 4.3156  24304.4  156.061
 4.5136  26416.7  161.674
 4.7116  27583.4  166.339
 4.9096  26815.4  163.449
 5.1076  26571.4  163.267
 5.3056  26460.8  162.673
 5.5036  26114  161.589
 5.7016  26482.1  162.604
 5.8996  27164.4  163.916
 6.0976  27911  167.544
 6.2956  27950.7  167.036
 6.4936  28771  168.67
 6.6916  29191.5  170.873
 6.8896  30050.3  173.219
 7.0876  30954.6  176.549
 7.2856  30776.9  175.093
 7.4836  30846.7  174.651
 7.6816  31827.7  177.909
 7.8796  32657  180.246
 8.0776  33684.8  184.032
 8.2756  35396  187.29
 8.4736  35953.8  188.573
 8.6716  34983.9  186.615
 8.8696  36016.5  189.817
 9.0676  34888.7  186.156
 9.2656  34018.8  184.507
 9.4636  33131.3  180.592
 9.6616  32284.3  178.982
 9.8596  31628  176.581
 10.0576  29596.9  171.48
 10.2556  28724.1  169.364
 10.4536  27628  165.706
 10.6516  27197.4  164.622
 10.8496  25890.8  160.059
 11.0476  24936.2  157.06
 11.2456  24343.3  155.739
 11.4436  24573.3  155.661
 11.6416  25936.6  160.27
 11.8396  23739.8  153.52
 12.0376  23118  151.16
 12.2356  22766.1  150.441
 12.4336  22740.4  149.879
 12.6316  22688  149.959
 12.8296  22962  150.487
 13.0276  23136.8  151.275
 13.2256  23420.8  152.552
 13.4236  23362.7  152.137
 13.6216  23626.5  152.969
 13.8196  25814.4  159.341
 14.0176  22796.1  150.364
 14.2156  22335.6  147.866
 14.4136  21178.3  145.338
 14.6116  21073.6  144.204
 14.8096  20332.1  141.629
 15.0076  19509.7  142.536
 15.2056  18333.5  134.133
 15.4036  17790.7  132.939
 15.6016  17321.6  130.284
 15.7996  16855.9  128.79
 15.9976  16571  130.516
 16.1956  16318.3  127.416
 16.3936  15833.9  124.717
 16.5916  15751.5  125.023
 16.7896  15622  124.578
 16.9876  15627.8  126.031
 17.1856  15393.8  123.492
 17.3836  15115.3  122.276
 17.5816  14623.5  120.736
 17.7796  14283.1  119.25
 17.9776  13857  118.224
 18.1756  13796.4  116.759
 18.3736  13615.3  116.452
 18.5716  13497.5  115.71
 18.7696  13533  115.441
 18.9676  13520  115.187
 19.1656  13067.7  113.822
 19.3636  13052.7  113.937
 19.5616  12974.7  113.757
 19.7596  13362.4  114.845
 19.9576  13359.9  114.895
 20.1556  14096.8  118.549
 20.3536  13374.5  114.858
 20.5516  12830.9  112.936
 20.7496  12641  112.033
 20.9476  12553.4  111.396
 21.1456  12355.5  110.848
 21.3436  12277.9  110.445
 21.5416  12139.2  109.834
 21.7396  12049.8  109.276
 21.9376  11974.5  108.717
 22.1356  12025.2  109.061
 22.3336  11748  108.07
 22.5316  11757.6  108.218
 22.7296  11865.4  108.102
 22.9276  11755.2  108.241
 23.1256  11899.9  108.401
 23.3236  12222.7  110.402
 23.5216  12126.7  109.606
 23.7196  11842.4  108.277
 23.9176  11999.7  108.727
 24.1156  11755.3  108.078
 24.3136  11500.5  107.679
 24.5116  11489.4  107.162
 24.7096  11090.2  105.108
 24.9076  11118.4  105.267
 25.1056  10719.9  103.561
 25.3036  10588.8  102.713
 25.5016  10592.8  102.767
 25.6996  10494.7  101.887
 25.8976  10507.5  102.365
 26.0956  10355.8  101.645
 26.2936  10368.4  101.374
 26.4916  10635.7  102.53
 26.6896  10296.8  101.181
 26.8876  10293.9  101.017
 27.0856  10062.7  99.9072
 27.2836  9930.01  99.1748
 27.4816  9809.97  98.5107
 27.6796  9708.17  98.354
 27.8776  9934.59  99.3469
 28.0756  9618.92  98.054
 28.2736  9642.52  97.762
 28.4716  9448.48  96.8224
 28.6696  9490.07  96.8828
 28.8676  9322.18  96.3648
 29.0656  9261.92  96.0298
 29.2636  9328.8  96.0868
 29.4616  8946.32  94.3704
 29.6596  8911.22  93.7721
 29.8576  8740.8  93.5243
 30.0556  8908.49  94.3001
 30.2536  8831.23  93.6921
 30.4516  9044.54  94.4298
 30.6496  9139.03  94.6797
 30.8476  9085.47  94.8402
 31.0456  9149.34  95.1253
 31.2436  9060.28  93.9383
 31.4416  8935.48  93.4725
 31.6396  9023.93  93.9734
 31.8376  8993.16  93.3227
 32.0356  8943.12  93.6537
 32.2336  8900.53  92.8377
 32.4316  8522.84  91.2451
 32.6296  8593.71  91.4074
 32.8276  8661.64  91.6212
 33.0256  8595.16  91.3278
 33.2236  8567.81  91.3203
 33.4216  8471.9  90.5223
 33.6196  8500.01  90.9481
 33.8176  8479.94  91.0004
 34.0156  8364.74  90.0217
 34.2136  8466.96  90.583
 34.4116  8186.34  89.2441
 34.6096  8174.55  89.0547
 34.8076  8075.78  88.9208
 35.0056  8041.44  88.4082
 35.2036  8326.36  90.1807
 35.4016  8082.82  88.7762
 35.5996  8176.73  89.3182
 35.7976  8088.29  89.1015
 35.9956  8144.43  89.0619
 36.1936  8107.76  88.711
 36.3916  7885.14  87.6893
 36.5896  7898.63  89.1761
 36.7876  7802.26  87.6014
 36.9856  7637.35  86.698
 37.1836  7614.77  85.7049
 37.3816  7709.92  86.5945
 37.5796  7852.73  89.0773
 37.7776  7756.03  86.9194
 37.9756  7768.05  86.87
 38.1736  7724.89  86.8265
 38.3716  7710.3  87.0008
 38.5696  7653.96  87.0547
 38.7676  7540.48  85.9295
 38.9656  7475.62  85.1974
 39.1636  7669.18  86.5341
 39.3616  7718.38  86.7787
 39.5596  7524.11  86.5069
 39.7576  7481.26  85.6583
 39.9556  7488.43  85.3466
 40.1536  7677.12  86.598
 40.3516  7620.22  86.3061
 40.5496  7671.76  86.6374
 40.7476  7687.22  86.9312
 40.9456  7587.66  86.1294
 41.1436  7757.24  86.8026
 41.3416  7470.9  85.5238
 41.5396  7661.68  86.4159
 41.7376  7611.14  86.3914
 41.9356  7529.44  85.7795
 42.1336  7716.23  86.9724
 42.3316  7574.98  86.3867
 42.5296  7578.97  85.9238
 42.7276  7477.32  85.5897
 42.9256  7572.77  86.0077
 43.1236  7464.74  85.4905
 43.3216  7516.58  85.6348
 43.5196  7409.94  84.9812
 43.7176  7462.94  85.687
 43.9156  7217.48  84.1969
 44.1136  7152.29  83.3815
 44.3116  7258.83  84.0178
 44.5096  7209.53  84.027
 44.7076  7259.56  84.2525
 44.9056  7361.37  84.6961
 45.1036  7296.93  83.9511
 45.3016  7237.15  84.0967
 45.4996  7443.18  85.2288
 45.6976  7182.04  83.9015
 45.8956  7203.27  83.8292
 46.0936  7316.61  84.4903
 46.2916  7204.92  83.8196
 46.4896  7199.82  83.8087
 46.6876  7233.1  84.7265
 46.8856  7116.76  83.3214
 47.0836  7151.06  83.76
 47.2816  7036.07  82.975
 47.4796  7147.97  83.7349
 47.6776  7052.82  84.1145
 47.8756  7230.05  84.3334
 48.0736  7104.74  84.0522
 48.2716  7071.91  83.6761
 48.4696  7150.54  83.7323
 48.6676  7110.91  84.0843
 48.8656  7264.83  84.7174
 49.0636  7183.42  84.1864
 49.2616  7017.6  83.2521
 49.4596  7088.76  83.2166
 49.6576  7023.45  83.0688
 49.8556  6954.35  82.684
 50.0536  7019.07  83.5108
 50.2516  6934.57  83.1112
 50.4496  6958.33  82.9435
 50.6476  6992.27  82.8222
 50.8456  7021.06  83.0768
 51.0436  6799.45  82.2146
 51.2416  6813.01  81.9707
 51.4396  6682.93  81.5828
 51.6376  6738.96  81.7315
 51.8356  6810.95  81.8
 52.0336  6748.78  81.9273
 52.2316  6819.59  82.715
 52.4296  6750.12  81.9997
 52.6276  6668.59  81.6075
 52.8256  6775.16  81.8143
 53.0236  6741.71  82.2396
 53.2216  6727.72  82.1866
 53.4196  6631.65  81.5104
 53.6176  6704.46  82.4641
 53.8156  6607.73  81.5342
 54.0136  6403.32  80.4509
 54.2116  6562.15  81.0501
 54.4096  6484.73  80.6606
 54.6076  6381.67  80.3553
 54.8056  6282.18  79.5051
 55.0036  6243.81  79.6634
 55.2016  6399.34  80.1577
 55.3996  6165.27  78.6738
 55.5976  6329.46  79.9115
 55.7956  6182.16  78.7881
 55.9936  6309.07  79.7046
 56.1916  6128.48  78.5964
 56.3896  6057.84  78.1244
 56.5876  6078.23  78.7919
 56.7856  6048.53  78.1222
 56.9836  6194.79  78.8142
 57.1816  6158.28  78.9476
 57.3796  6073.21  78.2278
 57.5776  6037.19  77.8715
 57.7756  5905.74  77.7039
 57.9736  5984.17  77.8927
 58.1716  5879.42  77.4603
 58.3696  5764.46  76.4703
 58.5676  5801.21  76.2006
 58.7656  5734.49  76.4166
 58.9636  5645.04  75.8459
 59.1616  5659.3  76.0699
 59.3596  5677.9  75.4811
 59.5576  5785.33  76.2485
 59.7556  5757.19  76.4712
 59.9536  5564.67  75.0847
 60.1516  5685.54  76.7195
 60.1996  0.0000000E+00  0.0000000E+00