File: docs/examples/opeando_xrd/IS17_D/Data/IS17_D/17_Da_f00028.xye
# /beamlines/bl04/projects/cycle2025-II/20250340211-lsimonelli/DATA/IS17_D/17_Da_f00028.xye : mythproc.py merge -s 0.006 -l 0.5 -f /beamlines/bl04/inhouse/ff/FlatField/ff_20Nov2024rod8mm60s_17keV.raw -b True -c true -o xye /beamlines/bl04/projects/cycle2025-II/20250340211-lsimonelli/DATA/IS17_D/17_Da_00028.dat
# IsMon = [6779836, 6779133, 6783403]  IsPos = [-1.5000, -2.4885, -3.4986]
# Wave = 0.4962  CalPath /beamlines/bl04/projects/cycle2025-II/20250340211-lsimonelli/DATA/Align/Si_Pos1_25keV_f00001.cal
# Date = 2025-09-24_01:20:56 Dt = 4.8000  Bin = 0.0060  <imon> = 6780791 +/- 1869 (Min/Max) 6779133 / 6783403
# icurr 252.4241  mocoIn 1.7211E-05  mocoOut 0.8080  i15 7.09665e+06  imon 6.78079e+06  i7 5.0000  iEMpd_timer 4.8000  iEMpd_1 3.5443E-08  iEMpd_2 7.7931E-08  iEMpd_3 1.6251E-08  iEMpd_4 4.7755E-08  iEMhp_timer 4.8000  iEMhp_1 4.9306E-06  iEMhp_2 -2.5086E-08  iEMhp_3 -2.3445E-08  iEMhp_4 -2.1312E-08
#      9776
 1.7416  70635.4  265.868
 1.9396  45288.2  213.166
 2.1376  31814.9  178.657
 2.3356  28303  168.155
 2.5336  26367.9  162.876
 2.7316  24915.9  158.441
 2.9296  23940.5  155.473
 3.1276  23187.5  152.558
 3.3256  23040.1  151.754
 3.5236  25038.2  158.152
 3.7216  22690.3  151.615
 3.9196  22110  148.913
 4.1176  22216.3  149.041
 4.3156  23544.3  153.587
 4.5136  26138.3  160.824
 4.7116  27248.2  165.333
 4.9096  26659.2  162.973
 5.1076  26197.5  162.133
 5.3056  26879.3  163.85
 5.5036  26153.5  161.633
 5.7016  26867.8  163.783
 5.8996  27183.3  163.96
 6.0976  28262.1  168.624
 6.2956  28387.2  168.336
 6.4936  28955.5  169.213
 6.6916  29397.3  171.49
 6.8896  30126.5  173.464
 7.0876  31296.2  177.444
 7.2856  30832  175.269
 7.4836  31266.4  175.843
 7.6816  32083.3  178.655
 7.8796  33404.3  182.285
 8.0776  34828.2  187.098
 8.2756  36597  190.396
 8.4736  37312.7  192.069
 8.6716  36352.6  190.215
 8.8696  36187  190.229
 9.0676  35339.5  187.365
 9.2656  34223.6  185.063
 9.4636  34015.4  182.928
 9.6616  33196.9  181.472
 9.8596  31907.6  177.42
 10.0576  30319.2  173.6
 10.2556  28924.2  169.99
 10.4536  28433.6  168.152
 10.6516  27961.7  166.941
 10.8496  27156.2  163.922
 11.0476  26243.9  161.132
 11.2456  25513.5  159.441
 11.4436  25558.7  158.761
 11.6416  25456.5  158.803
 11.8396  24003.9  154.405
 12.0376  23902.8  153.701
 12.2356  23398.8  152.517
 12.4336  23423.5  152.121
 12.6316  22969.5  150.898
 12.8296  23538.1  152.4
 13.0276  23877.6  153.674
 13.2256  23845.1  153.926
 13.4236  23865.8  153.757
 13.6216  23777.1  153.5
 13.8196  23636.3  152.812
 14.0176  23440.2  152.46
 14.2156  22656  148.952
 14.4136  21815  147.513
 14.6116  21392.1  145.299
 14.8096  20927.1  143.688
 15.0076  19727.5  143.275
 15.2056  19527  138.407
 15.4036  18281.5  134.733
 15.6016  18175.9  133.436
 15.7996  17665.8  131.821
 15.9976  16932.3  131.97
 16.1956  16458.4  128.001
 16.3936  16367  126.827
 16.5916  16025.1  126.122
 16.7896  16025.8  126.179
 16.9876  15747.7  126.53
 17.1856  15580.3  124.261
 17.3836  15229  122.752
 17.5816  14714.2  121.132
 17.7796  14523.2  120.276
 17.9776  14483.2  120.879
 18.1756  14619.5  120.18
 18.3736  14549.1  120.393
 18.5716  14200.8  118.692
 18.7696  14305.5  118.7
 18.9676  13741.3  116.15
 19.1656  13788.1  116.886
 19.3636  13630.2  116.43
 19.5616  13493.7  116.005
 19.7596  13829.5  116.849
 19.9576  14036.2  117.777
 20.1556  13883.6  117.653
 20.3536  13161.9  113.941
 20.5516  12972.5  113.561
 20.7496  12814.4  112.717
 20.9476  12779.5  112.41
 21.1456  12989.2  113.653
 21.3436  12638.8  112.058
 21.5416  12549.7  111.667
 21.7396  12498.6  111.288
 21.9376  12402.4  110.632
 22.1356  12469.2  111.074
 22.3336  12542.4  111.641
 22.5316  12456.3  111.37
 22.7296  12308.4  110.067
 22.9276  12320.4  110.793
 23.1256  12433.5  110.781
 23.3236  12379.6  111.089
 23.5216  12259.4  110.212
 23.7196  12121.9  109.752
 23.9176  12121.6  109.299
 24.1156  12054.9  109.464
 24.3136  11695.2  108.62
 24.5116  11635.3  107.872
 24.7096  11204.9  105.676
 24.9076  11034.3  104.898
 25.1056  10998.7  104.915
 25.3036  10899.6  104.219
 25.5016  10869  104.107
 25.6996  10884.3  103.765
 25.8976  10726.4  103.438
 26.0956  10724.5  103.445
 26.2936  10675.7  102.865
 26.4916  10701.6  102.864
 26.6896  10444.3  101.917
 26.8876  10356.5  101.348
 27.0856  10425.2  101.69
 27.2836  10328.4  101.306
 27.4816  10167.6  100.296
 27.6796  10073.3  100.201
 27.8776  9921.77  99.3073
 28.0756  9931.64  99.6346
 28.2736  9782.57  98.4762
 28.4716  9713.43  98.1738
 28.6696  9787.21  98.3911
 28.8676  9601.19  97.791
 29.0656  9455.6  97.0305
 29.2636  9452.74  96.7295
 29.4616  9406.96  96.7578
 29.6596  9499.32  96.8019
 29.8576  9405.37  97.0016
 30.0556  9269.2  96.1672
 30.2536  9451.35  96.9107
 30.4516  9151.59  95.02
 30.6496  9318.12  95.6099
 30.8476  9205.21  95.4661
 31.0456  9149.96  95.144
 31.2436  9106.08  94.192
 31.4416  8975.48  93.7006
 31.6396  9074.78  94.2639
 31.8376  8989.99  93.3798
 32.0356  8931.05  93.6209
 32.2336  9053.23  93.6553
 32.4316  8788.39  92.6703
 32.6296  8682.86  91.8816
 32.8276  8899.68  92.8699
 33.0256  8689.88  91.8384
 33.2236  8710.25  92.0909
 33.4216  8796.66  92.2387
 33.6196  8702.62  92.0401
 33.8176  8631.02  91.8145
 34.0156  8604.99  91.3001
 34.2136  8442.25  90.4696
 34.4116  8439.56  90.6078
 34.6096  8400.31  90.2749
 34.8076  8155.6  89.3487
 35.0056  8383.41  90.2825
 35.2036  8244.01  89.7281
 35.4016  8278.63  89.8424
 35.5996  8334.31  90.1809
 35.7976  8205.01  89.7471
 35.9956  8262.57  89.717
 36.1936  8160.26  89.0309
 36.3916  8060.04  88.6557
 36.5896  8090.77  90.2311
 36.7876  8049.52  88.9627
 36.9856  8090.75  89.2181
 37.1836  8133.91  88.5646
 37.3816  8094.64  88.7079
 37.5796  7891.65  89.2807
 37.7776  7793.3  87.135
 37.9756  7996.84  88.1427
 38.1736  7962.38  88.15
 38.3716  7910.92  88.1388
 38.5696  7711.96  87.396
 38.7676  7619.45  86.3956
 38.9656  7762.37  86.8403
 39.1636  7670.83  86.5592
 39.3616  7754.21  86.9903
 39.5596  7628.71  87.1107
 39.7576  7725.69  87.0376
 39.9556  7751.48  86.8345
 40.1536  7854.25  87.6002
 40.3516  7843.59  87.635
 40.5496  7839.17  87.5839
 40.7476  7722.56  87.1305
 40.9456  7861.93  87.6678
 41.1436  7830.88  87.2213
 41.3416  7753.2  87.1207
 41.5396  7732.55  86.812
 41.7376  7744.27  87.1446
 41.9356  7580.69  86.0822
 42.1336  7761.96  87.2492
 42.3316  7664.33  86.896
 42.5296  7628.42  86.2145
 42.7276  7682.24  86.7565
 42.9256  7670.98  86.565
 43.1236  7635.87  86.4729
 43.3216  7545.88  85.817
 43.5196  7522.74  85.6487
 43.7176  7484.96  85.8203
 43.9156  7383.04  85.1449
 44.1136  7515.02  85.4574
 44.3116  7402.77  84.8267
 44.5096  7374.96  84.9764
 44.7076  7368.07  84.8666
 44.9056  7289.57  84.2806
 45.1036  7280.16  83.8586
 45.3016  7152.1  83.6045
 45.4996  7108.41  83.2893
 45.6976  7076.78  83.2748
 45.8956  7236.08  84.0415
 46.0936  7155.88  83.3367
 46.2916  7220.19  83.9311
 46.4896  7081.86  83.1592
 46.6876  7183.33  84.4535
 46.8856  7031.38  82.9323
 47.0836  6953.88  82.6077
 47.2816  6957.81  82.5131
 47.4796  7019.39  82.9831
 47.6776  6893.78  83.1471
 47.8756  6937.9  82.6154
 48.0736  6955.31  83.1453
 48.2716  6731.38  81.6409
 48.4696  6904.32  82.282
 48.6676  6894.11  82.7988
 48.8656  6852.18  82.2714
 49.0636  6787.26  81.8382
 49.2616  6666.81  81.1423
 49.4596  6748.73  81.1943
 49.6576  6692.65  81.0833
 49.8556  6746.21  81.4371
 50.0536  6593.55  80.9462
 50.2516  6579.17  80.9554
 50.4496  6584.45  80.6859
 50.6476  6601.44  80.4777
 50.8456  6576.15  80.4031
 51.0436  6463.54  80.1454
 51.2416  6342.98  79.0765
 51.4396  6253.46  78.905
 51.6376  6406.46  79.6952
 51.8356  6406.12  79.3296
 52.0336  6274.48  78.9995
 52.2316  6315.97  79.6016
 52.4296  6382.35  79.7069
 52.6276  6331.22  79.5019
 52.8256  6265.98  78.6595
 53.0236  6178.4  78.7524
 53.2216  6151.43  78.5927
 53.4196  6133.09  78.4211
 53.6176  6142.01  78.9453
 53.8156  6191.34  78.9415
 54.0136  6135.61  78.7445
 54.2116  6088.64  78.1146
 54.4096  6187.03  78.7924
 54.6076  6030.18  78.1308
 54.8056  6079.96  78.2394
 55.0036  6076.87  78.4828
 55.2016  6093.41  78.1972
 55.3996  6063.9  78.0501
 55.5976  6028.29  78.0034
 55.7956  6065.27  78.057
 55.9936  5984.26  77.6719
 56.1916  5989.71  77.7233
 56.3896  5989.92  77.7152
 56.5876  6002.54  78.3404
 56.7856  5881.5  77.0396
 56.9836  5934.48  77.1802
 57.1816  5950.05  77.6485
 57.3796  6059.55  78.1363
 57.5776  5900.32  77.0521
 57.7756  5924.23  77.8405
 57.9736  5922.87  77.5102
 58.1716  6004.62  78.281
 58.3696  5970.68  77.8186
 58.5676  5936.7  77.077
 58.7656  5957.41  77.8688
 58.9636  5966.01  77.9614
 59.1616  5971.57  78.1236
 59.3596  6187.96  78.7692
 59.5576  6088.67  78.1939
 59.7556  5892.87  77.3394
 59.9536  5989.05  77.8674
 60.1516  6019.55  78.9126
 60.1996  0.0000000E+00  0.0000000E+00