File: docs/examples/opeando_xrd/IS17_D/Data/IS17_D/17_Da_f00089.xye
# /beamlines/bl04/projects/cycle2025-II/20250340211-lsimonelli/DATA/IS17_D/17_Da_f00089.xye : mythproc.py merge -s 0.006 -l 0.5 -f /beamlines/bl04/inhouse/ff/FlatField/ff_20Nov2024rod8mm60s_17keV.raw -b True -c true -o xye /beamlines/bl04/projects/cycle2025-II/20250340211-lsimonelli/DATA/IS17_D/17_Da_00089.dat
# IsMon = [6785586, 6789006, 6786749]  IsPos = [-1.5000, -2.4884, -3.4988]
# Wave = 0.4962  CalPath /beamlines/bl04/projects/cycle2025-II/20250340211-lsimonelli/DATA/Align/Si_Pos1_25keV_f00001.cal
# Date = 2025-09-24_18:20:26 Dt = 4.8000  Bin = 0.0060  <imon> = 6787114 +/- 1420 (Min/Max) 6785586 / 6789006
# icurr 252.5475  mocoIn 1.7218E-05  mocoOut 0.8080  i15 7.10443e+06  imon 6.78711e+06  i7 5.6667  iEMpd_timer 4.8000  iEMpd_1 3.5237E-08  iEMpd_2 7.8641E-08  iEMpd_3 1.6538E-08  iEMpd_4 4.6531E-08  iEMhp_timer 4.8000  iEMhp_1 4.9312E-06  iEMhp_2 -2.5595E-08  iEMhp_3 -2.3833E-08  iEMhp_4 -2.2614E-08
#      9776
 1.7416  70318.5  265.282
 1.9396  45830.9  214.436
 2.1376  32400.1  180.301
 2.3356  28750.9  169.487
 2.5336  26747.9  164.052
 2.7316  25332  159.742
 2.9296  24315.1  156.667
 3.1276  23864.4  154.764
 3.3256  23434.1  153.021
 3.5236  25293.3  158.778
 3.7216  23239.9  153.442
 3.9196  22751.2  151.053
 4.1176  22762.4  150.866
 4.3156  23974  154.99
 4.5136  26474.7  161.847
 4.7116  27588  166.363
 4.9096  27053.6  164.173
 5.1076  26597.5  163.368
 5.3056  27187.4  164.898
 5.5036  26910  163.939
 5.7016  27487.1  165.661
 5.8996  28020.7  166.468
 6.0976  28825.3  170.3
 6.2956  29301.6  171.024
 6.4936  29595.2  171.065
 6.6916  30061.9  173.419
 6.8896  30722.4  175.173
 7.0876  31914.5  179.19
 7.2856  31685.4  177.679
 7.4836  31871.9  177.537
 7.6816  32753.2  180.512
 7.8796  34345.5  184.83
 8.0776  35572.2  189.083
 8.2756  37574.5  192.937
 8.4736  38154.9  194.224
 8.6716  37602.1  193.439
 8.8696  36955.2  192.276
 9.0676  36347.2  190.049
 9.2656  35345.9  188.102
 9.4636  35225.7  186.179
 9.6616  34450  184.894
 9.8596  33084.9  180.643
 10.0576  31419.4  176.695
 10.2556  30328.9  174.045
 10.4536  29567  171.448
 10.6516  28791.2  169.383
 10.8496  27989.8  166.426
 11.0476  27338.9  164.501
 11.2456  26724.2  163.172
 11.4436  27041.3  163.298
 11.6416  26175.6  161.028
 11.8396  24765.5  156.837
 12.0376  24825  156.661
 12.2356  24342  155.521
 12.4336  24260.1  154.805
 12.6316  23812.4  153.647
 12.8296  24127.9  154.297
 13.0276  24730.1  156.389
 13.2256  24908.9  157.326
 13.4236  24606.7  156.132
 13.6216  24504.8  155.831
 13.8196  24481.6  155.522
 14.0176  24088.7  154.555
 14.2156  23608.9  152.053
 14.4136  22563.4  150.022
 14.6116  22261.2  148.22
 14.8096  21419.2  145.377
 15.0076  20503.9  146.068
 15.2056  20190.9  140.739
 15.4036  19185.2  138.028
 15.6016  18795.9  135.695
 15.7996  18194.7  133.788
 15.9976  17420.5  133.852
 16.1956  17097.3  130.479
 16.3936  16725.2  128.225
 16.5916  16346.5  127.397
 16.7896  16431.6  127.787
 16.9876  16294.9  128.712
 17.1856  16146.1  126.476
 17.3836  15695.4  124.596
 17.5816  15326.2  123.616
 17.7796  15238.4  123.19
 17.9776  14916.4  122.683
 18.1756  15282.2  122.87
 18.3736  15095.5  122.626
 18.5716  14777.5  121.079
 18.7696  14697.3  120.316
 18.9676  14303.4  118.501
 19.1656  14199.7  118.637
 19.3636  14216.1  118.904
 19.5616  14144.5  118.766
 19.7596  14244.1  118.591
 19.9576  14637.3  120.269
 20.1556  14277.1  119.307
 20.3536  13746.4  116.446
 20.5516  13546  116.047
 20.7496  13164.5  114.247
 20.9476  13134.8  113.962
 21.1456  13262.9  114.842
 21.3436  13033.7  113.802
 21.5416  12827.9  112.897
 21.7396  12776.1  112.516
 21.9376  12816.9  112.461
 22.1356  12909.8  113.147
 22.3336  12719  112.442
 22.5316  12665.7  112.299
 22.7296  12793.6  112.224
 22.9276  12723.4  112.592
 23.1256  12975.7  113.178
 23.3236  12737.6  112.695
 23.5216  12569.6  111.611
 23.7196  12380  110.933
 23.9176  12446.8  110.772
 24.1156  12267.1  110.436
 24.3136  11761.1  108.912
 24.5116  12129.7  110.128
 24.7096  11515.2  107.121
 24.9076  11375.6  106.495
 25.1056  11224.8  106.249
 25.3036  11160  105.449
 25.5016  11098.5  105.196
 25.6996  11123.1  104.895
 25.8976  11016.5  104.827
 26.0956  10998.2  104.761
 26.2936  11090  104.837
 26.4916  11153.1  105.019
 26.6896  10736.1  103.33
 26.8876  10659.7  102.817
 27.0856  10587.1  102.521
 27.2836  10433.1  101.66
 27.4816  10330.4  101.095
 27.6796  10406.7  101.846
 27.8776  10277.8  101.073
 28.0756  10339  101.657
 28.2736  10259.7  100.849
 28.4716  10041.2  99.8135
 28.6696  9961.93  99.2674
 28.8676  9943.66  99.5299
 29.0656  9782.57  98.6944
 29.2636  9688.72  98.0169
 29.4616  9898.89  99.2525
 29.6596  9798.9  98.313
 29.8576  9648.79  98.2469
 30.0556  9483.45  97.2812
 30.2536  9677.05  98.0596
 30.4516  9448.07  96.5593
 30.6496  9565.84  96.8853
 30.8476  9533.24  97.1643
 31.0456  9413.22  96.5057
 31.2436  9352.43  95.4664
 31.4416  9231.24  95.0139
 31.6396  9425.71  96.0594
 31.8376  9187.4  94.3875
 32.0356  9229.61  95.167
 32.2336  9171.94  94.2571
 32.4316  9092.46  94.2524
 32.6296  9057.4  93.9044
 32.8276  9049.12  93.6342
 33.0256  8952.53  93.22
 33.2236  8924.7  93.2212
 33.4216  8933.01  92.945
 33.6196  8956.83  93.3683
 33.8176  8936.36  93.4301
 34.0156  8767.21  92.1577
 34.2136  8704.31  91.8649
 34.4116  8718.65  92.0931
 34.6096  8739.07  92.0787
 34.8076  8559  91.5207
 35.0056  8684.9  91.8905
 35.2036  8556.38  91.4115
 35.4016  8477  90.918
 35.5996  8372.59  90.3886
 35.7976  8380.74  90.7013
 35.9956  8425.07  90.5945
 36.1936  8540.67  91.0803
 36.3916  8341.22  90.1845
 36.5896  8189.61  90.3268
 36.7876  8394.65  90.8468
 36.9856  8312.98  90.4357
 37.1836  8281.51  89.3625
 37.3816  8235.8  89.4845
 37.5796  8211.37  91.0721
 37.7776  8099.88  88.8344
 37.9756  7977.93  88.0507
 38.1736  8179.2  89.3552
 38.3716  8128.36  89.3536
 38.5696  7937.43  88.6677
 38.7676  7903.24  87.9801
 38.9656  7908.83  87.6475
 39.1636  7910.64  87.9211
 39.3616  8087.68  88.8268
 39.5596  7774.17  87.9304
 39.7576  7927.71  88.1671
 39.9556  7993.14  88.1674
 40.1536  8067.03  88.788
 40.3516  8031.53  88.5961
 40.5496  8029.21  88.8472
 40.7476  8080.72  89.1403
 40.9456  8055.22  88.746
 41.1436  7963.87  87.964
 41.3416  7991.17  88.4459
 41.5396  7906.99  87.7908
 41.7376  7936.29  88.2176
 41.9356  7870.73  87.7133
 42.1336  7955.12  88.3229
 42.3316  7848.61  87.9313
 42.5296  7830.64  87.3515
 42.7276  7833.21  87.6038
 42.9256  7793.62  87.2498
 43.1236  7864.27  87.7565
 43.3216  7748.91  86.8613
 43.5196  7712.25  86.7185
 43.7176  7731.69  87.224
 43.9156  7639.17  86.6071
 44.1136  7563.42  85.73
 44.3116  7637.3  86.1658
 44.5096  7453.08  85.4199
 44.7076  7546.61  85.8869
 44.9056  7594.65  86.0374
 45.1036  7551.19  85.4167
 45.3016  7373.65  84.9033
 45.4996  7306.39  84.4534
 45.6976  7325.68  84.7389
 45.8956  7422.94  85.1099
 46.0936  7352.8  84.4688
 46.2916  7382.68  84.8616
 46.4896  7343.96  84.6624
 46.6876  7171.28  84.3669
 46.8856  7196.99  83.7924
 47.0836  7161.95  83.8326
 47.2816  7080.77  83.2348
 47.4796  7158.98  83.7952
 47.6776  7000.23  83.8065
 47.8756  7019.1  83.091
 48.0736  7076.89  83.8966
 48.2716  6984.07  83.1531
 48.4696  7063.22  83.2241
 48.6676  7021.83  83.5599
 48.8656  7063.97  83.5329
 49.0636  6976.62  82.9728
 49.2616  6766.48  81.7489
 49.4596  6990.03  82.6498
 49.6576  6917.97  82.4486
 49.8556  6838.12  81.9907
 50.0536  6799.62  82.1945
 50.2516  6844.01  82.6039
 50.4496  6768.3  81.7978
 50.6476  6855.17  82.0096
 50.8456  6811.61  81.833
 51.0436  6731.85  81.7896
 51.2416  6601.9  80.6778
 51.4396  6458.57  80.1845
 51.6376  6544.09  80.5374
 51.8356  6597.72  80.5002
 52.0336  6539.03  80.6583
 52.2316  6492.41  80.7175
 52.4296  6489.38  80.3913
 52.6276  6429.3  80.1368
 52.8256  6504.63  80.1607
 53.0236  6402.37  80.155
 53.2216  6320.98  79.6517
 53.4196  6253.25  79.1694
 53.6176  6213.52  79.3953
 53.8156  6259.31  79.3639
 54.0136  6248.52  79.4673
 54.2116  6288.58  79.3898
 54.4096  6320.86  79.637
 54.6076  6253.58  79.5658
 54.8056  6150.2  78.6912
 55.0036  6160.39  79.0207
 55.2016  6243.79  79.1556
 55.3996  6203.11  78.9389
 55.5976  6142.91  78.7381
 55.7956  6199.48  78.9201
 55.9936  6149.13  78.7303
 56.1916  6131.29  78.6271
 56.3896  6212.3  79.1418
 56.5876  6024.21  78.4844
 56.7856  6095.12  78.4325
 56.9836  6020.4  77.7372
 57.1816  6134.3  78.8445
 57.3796  6201.36  79.0652
 57.5776  6133.94  78.5667
 57.7756  6049.07  78.6566
 57.9736  6165.45  79.0816
 58.1716  6102.33  78.9169
 58.3696  6084.75  78.5477
 58.5676  6138.06  78.368
 58.7656  6149.12  79.111
 58.9636  6073.28  78.6578
 59.1616  6210.19  79.6641
 59.3596  6298.1  79.487
 59.5576  6148.08  78.5918
 59.7556  6123.95  78.8585
 59.9536  6265.2  79.6598
 60.1516  5980.64  78.6744
 60.1996  0.0000000E+00  0.0000000E+00