File: docs/examples/opeando_xrd/IS17_D/Data/IS17_D/17_Da_f00133.xye
# /beamlines/bl04/projects/cycle2025-II/20250340211-lsimonelli/DATA/IS17_D/17_Da_f00133.xye : mythproc.py merge -s 0.006 -l 0.5 -f /beamlines/bl04/inhouse/ff/FlatField/ff_20Nov2024rod8mm60s_17keV.raw -b True -c true -o xye /beamlines/bl04/projects/cycle2025-II/20250340211-lsimonelli/DATA/IS17_D/17_Da_00133.dat
# IsMon = [6778536, 6776074, 6768377]  IsPos = [-1.4999, -2.4884, -3.4988]
# Wave = 0.4962  CalPath /beamlines/bl04/projects/cycle2025-II/20250340211-lsimonelli/DATA/Align/Si_Pos1_25keV_f00001.cal
# Date = 2025-09-25_06:37:41 Dt = 4.8000  Bin = 0.0060  <imon> = 6774329 +/- 4327 (Min/Max) 6768377 / 6778536
# icurr 253.1169  mocoIn 1.7260E-05  mocoOut 0.8115  i15 7.09176e+06  imon 6.77433e+06  i7 4.6667  iEMpd_timer 4.8000  iEMpd_1 3.4480E-08  iEMpd_2 7.9464E-08  iEMpd_3 1.7505E-08  iEMpd_4 4.8377E-08  iEMhp_timer 4.8000  iEMhp_1 4.9444E-06  iEMhp_2 -2.7179E-08  iEMhp_3 -2.4253E-08  iEMhp_4 -2.0472E-08
#      9776
 1.7416  70319.9  265.173
 1.9396  46229.2  215.273
 2.1376  32909.8  181.636
 2.3356  29093.8  170.423
 2.5336  27335.3  165.774
 2.7316  25328.8  159.697
 2.9296  24400.4  156.91
 3.1276  23708.7  154.215
 3.3256  23488.3  153.174
 3.5236  25555.8  159.583
 3.7216  23249.4  153.473
 3.9196  22843.7  151.36
 4.1176  22664.2  150.523
 4.3156  24043.7  155.228
 4.5136  26655  162.397
 4.7116  27605.9  166.418
 4.9096  26940.9  163.833
 5.1076  26392.6  162.72
 5.3056  26886.8  164
 5.5036  26858.3  163.785
 5.7016  27237.5  164.907
 5.8996  27858.8  165.986
 6.0976  28607.3  169.636
 6.2956  29115.6  170.494
 6.4936  29716.8  171.414
 6.6916  29994.9  173.224
 6.8896  31071.4  176.166
 7.0876  32078.9  179.731
 7.2856  31876.4  178.216
 7.4836  32350.5  178.864
 7.6816  33223.7  181.802
 7.8796  34675  185.761
 8.0776  36709.4  192.119
 8.2756  38384.9  195.059
 8.4736  38737.6  195.744
 8.6716  38370.4  195.439
 8.8696  38317.7  195.783
 9.0676  37650.8  193.422
 9.2656  36576.7  191.344
 9.4636  36087.2  188.47
 9.6616  35273.9  187.12
 9.8596  33899.2  182.816
 10.0576  32267.9  179.046
 10.2556  30888.5  175.611
 10.4536  31085.6  175.763
 10.6516  30930.9  175.526
 10.8496  28701.1  168.533
 11.0476  28084.6  166.725
 11.2456  28217.5  167.669
 11.4436  28194.8  166.75
 11.6416  26691.6  162.61
 11.8396  25442.4  158.95
 12.0376  25280.2  158.106
 12.2356  25173.6  158.164
 12.4336  24755  156.387
 12.6316  24485.6  155.784
 12.8296  24918  156.805
 13.0276  25425.2  158.582
 13.2256  25096.2  157.911
 13.4236  25179.4  157.942
 13.6216  24999  157.378
 13.8196  25209.9  157.821
 14.0176  24486.3  155.841
 14.2156  24061.7  153.504
 14.4136  23016.6  151.522
 14.6116  22328.6  148.44
 14.8096  22021.6  147.422
 15.0076  20739.9  146.872
 15.2056  20336  141.274
 15.4036  19353.8  138.653
 15.6016  19012.7  136.504
 15.7996  18603.6  135.32
 15.9976  17704.5  134.95
 16.1956  17208.6  130.902
 16.3936  16928.3  129.001
 16.5916  16777.6  129.066
 16.7896  16857  129.429
 16.9876  16713.2  130.341
 17.1856  16416.8  127.516
 17.3836  15804.7  125.006
 17.5816  15497.1  124.279
 17.7796  15501.8  124.228
 17.9776  15267.1  124.116
 18.1756  15662.3  124.385
 18.3736  15481.6  124.183
 18.5716  14962.1  121.829
 18.7696  14967.4  121.414
 18.9676  14587.1  119.659
 19.1656  14525.3  119.999
 19.3636  14401.8  119.674
 19.5616  14349.4  119.631
 19.7596  14561.1  119.885
 19.9576  15052.1  121.96
 20.1556  14288.8  119.366
 20.3536  13931.6  117.229
 20.5516  13737.9  116.867
 20.7496  13349.4  115.138
 20.9476  13500  115.522
 21.1456  13646.8  116.499
 21.3436  13329.9  115.083
 21.5416  13168.7  114.39
 21.7396  13068.9  113.798
 21.9376  13041  113.458
 22.1356  13172.5  114.128
 22.3336  12986.5  113.636
 22.5316  12987.2  113.738
 22.7296  12824.1  112.38
 22.9276  12870.4  113.259
 23.1256  13198.1  114.174
 23.3236  12801.5  112.972
 23.5216  12849.8  112.846
 23.7196  12635.9  111.855
 23.9176  12475.5  110.869
 24.1156  12549.8  111.701
 24.3136  12121  110.545
 24.5116  12119.6  110.057
 24.7096  11689.9  107.909
 24.9076  11706.4  108.008
 25.1056  11328.7  106.72
 25.3036  11256.8  105.906
 25.5016  11288.2  106.092
 25.6996  11419.5  106.284
 25.8976  11333.3  106.314
 26.0956  11232.9  105.885
 26.2936  11281  105.733
 26.4916  11315.8  105.775
 26.6896  10953  104.371
 26.8876  10839.3  103.667
 27.0856  10842.5  103.757
 27.2836  10601  102.473
 27.4816  10556.2  102.193
 27.6796  10516  102.379
 27.8776  10429.5  101.804
 28.0756  10520.3  102.547
 28.2736  10286  100.978
 28.4716  10146.2  100.337
 28.6696  10138.6  100.144
 28.8676  9994.29  99.7809
 29.0656  9984.14  99.7064
 29.2636  9947.11  99.3031
 29.4616  9872.84  99.1444
 29.6596  9937.99  99.0308
 29.8576  9813.09  99.1014
 30.0556  9901.5  99.4297
 30.2536  9779.23  98.5951
 30.4516  9810.26  98.3895
 30.6496  9754.25  97.8318
 30.8476  9620.63  97.6086
 31.0456  9435.8  96.6146
 31.2436  9536.1  96.3819
 31.4416  9305.55  95.3779
 31.6396  9377.96  95.7954
 31.8376  9377.48  95.336
 32.0356  9498.2  96.5249
 32.2336  9175.25  94.2538
 32.4316  9258.22  95.1061
 32.6296  9261.4  94.9603
 32.8276  9384.06  95.3466
 33.0256  9200.66  94.4973
 33.2236  9151.64  94.3876
 33.4216  9158.75  94.1259
 33.6196  9144.39  94.3419
 33.8176  8987.14  93.6961
 34.0156  9008.49  93.4189
 34.2136  9008.82  93.451
 34.4116  8858.94  92.8401
 34.6096  8788  92.3353
 34.8076  8738.95  92.477
 35.0056  8807.56  92.5397
 35.2036  8671.25  92.01
 35.4016  8700.86  92.118
 35.5996  8620.31  91.7177
 35.7976  8663.46  92.2293
 35.9956  8560.12  91.3106
 36.1936  8562.79  91.2002
 36.3916  8496.37  91.0207
 36.5896  8506.61  92.0507
 36.7876  8512.36  91.5057
 36.9856  8339.44  90.5899
 37.1836  8499.26  90.5482
 37.3816  8538.03  91.1318
 37.5796  8261.98  91.3642
 37.7776  8133.57  89.0145
 37.9756  8215.51  89.332
 38.1736  8402.52  90.5614
 38.3716  8242.87  89.9802
 38.5696  8257.37  90.4373
 38.7676  8002.73  88.5101
 38.9656  8132.54  88.8589
 39.1636  8108  88.9896
 39.3616  8151.22  89.1624
 39.5596  7986.63  89.1322
 39.7576  8026.6  88.7131
 39.9556  8107.47  88.8009
 40.1536  8158.73  89.2892
 40.3516  8221.42  89.6381
 40.5496  8183.21  89.6948
 40.7476  8144.97  89.4928
 40.9456  8231.31  89.7047
 41.1436  8138.73  88.9152
 41.3416  8091.58  89.0091
 41.5396  8119.42  88.9619
 41.7376  8050.35  88.8427
 41.9356  7991.37  88.3825
 42.1336  8049.53  88.8435
 42.3316  8006.47  88.8195
 42.5296  8055.92  88.5991
 42.7276  7960.77  88.3155
 42.9256  7985.6  88.317
 43.1236  7853.4  87.6959
 43.3216  7941.1  87.9347
 43.5196  7838.85  87.422
 43.7176  7923.03  88.295
 43.9156  7710.79  87.0264
 44.1136  7698.63  86.511
 44.3116  7861.8  87.4444
 44.5096  7740.14  87.0668
 44.7076  7664.31  86.5723
 44.9056  7668.43  86.4515
 45.1036  7620.47  85.8073
 45.3016  7696.46  86.7406
 45.4996  7475.94  85.4276
 45.6976  7403.14  85.1954
 45.8956  7575.17  85.9585
 46.0936  7533.89  85.7235
 46.2916  7462.39  85.3028
 46.4896  7560.46  85.8901
 46.6876  7436.99  85.9096
 46.8856  7489.22  85.4744
 47.0836  7326.37  84.7796
 47.2816  7270.58  84.3431
 47.4796  7300.72  84.6287
 47.6776  7166.83  84.7939
 47.8756  7194.74  84.1293
 48.0736  7256.56  84.9515
 48.2716  7092.65  83.8072
 48.4696  7121.32  83.5618
 48.6676  7175.87  84.4692
 48.8656  7239.02  84.5751
 49.0636  7071.44  83.5277
 49.2616  6899.42  82.5554
 49.4596  7084.82  83.204
 49.6576  7033.45  83.1317
 49.8556  6956.49  82.6971
 50.0536  6865.41  82.6013
 50.2516  7000.75  83.5429
 50.4496  6851.84  82.3
 50.6476  6882.91  82.17
 50.8456  6953.36  82.6782
 51.0436  6794.77  82.1895
 51.2416  6879.01  82.3749
 51.4396  6676.88  81.542
 51.6376  6666.02  81.2902
 51.8356  6723.89  81.2776
 52.0336  6552.28  80.7247
 52.2316  6648.96  81.6856
 52.4296  6759.03  82.0581
 52.6276  6650.12  81.5122
 52.8256  6785.98  81.8642
 53.0236  6474.9  80.5933
 53.2216  6478.13  80.6488
 53.4196  6480.25  80.584
 53.6176  6399.29  80.556
 53.8156  6508.87  80.9084
 54.0136  6471.3  80.8842
 54.2116  6413.81  80.1679
 54.4096  6398.19  80.1207
 54.6076  6342.79  80.1305
 54.8056  6364.94  80.0554
 55.0036  6403.77  80.6942
 55.2016  6338.02  79.8192
 55.3996  6325.33  79.7176
 55.5976  6363.13  80.145
 55.7956  6321.9  79.6954
 55.9936  6271.72  79.5053
 56.1916  6349.23  80.0241
 56.3896  6342.85  79.9773
 56.5876  6285.1  80.1659
 56.7856  6221.23  79.24
 56.9836  6205.09  78.9107
 57.1816  6286.72  79.8069
 57.3796  6298.71  79.6874
 57.5776  6281.16  79.5064
 57.7756  6189.8  79.5647
 57.9736  6182.53  79.1913
 58.1716  6247.64  79.8617
 58.3696  6237.9  79.5411
 58.5676  6262.37  79.1658
 58.7656  6349.63  80.4131
 58.9636  6247.96  79.8002
 59.1616  6349.83  80.5757
 59.3596  6369.04  79.9664
 59.5576  6482.93  80.7369
 59.7556  6367.54  80.4448
 59.9536  6249.61  79.5935
 60.1516  6304.73  80.8113
 60.1996  0.0000000E+00  0.0000000E+00