File: docs/examples/opeando_xrd/IS17_D/Data/IS17_D/17_Db_f00104.xye
# /beamlines/bl04/projects/cycle2025-II/20250340211-lsimonelli/DATA/IS17_D/17_Db_f00104.xye : mythproc.py merge -s 0.006 -l 0.5 -f /beamlines/bl04/inhouse/ff/FlatField/ff_20Nov2024rod8mm60s_17keV.raw -b True -c true -o xye /beamlines/bl04/projects/cycle2025-II/20250340211-lsimonelli/DATA/IS17_D/17_Db_00104.dat
# IsMon = [6779257, 6780059, 6778521]  IsPos = [-1.4999, -2.4884, -3.4988]
# Wave = 0.4962  CalPath /beamlines/bl04/projects/cycle2025-II/20250340211-lsimonelli/DATA/Align/Si_Pos1_25keV_f00001.cal
# Date = 2025-09-24_22:40:29 Dt = 4.8000  Bin = 0.0060  <imon> = 6779279 +/- 628 (Min/Max) 6778521 / 6780059
# icurr 252.4488  mocoIn 1.7214E-05  mocoOut 0.8074  i15 7.10302e+06  imon 6.77928e+06  i7 3.0000  iEMpd_timer 4.8000  iEMpd_1 3.4691E-08  iEMpd_2 7.7550E-08  iEMpd_3 1.7939E-08  iEMpd_4 4.8638E-08  iEMhp_timer 4.8000  iEMhp_1 4.9306E-06  iEMhp_2 -2.4181E-08  iEMhp_3 -2.4378E-08  iEMhp_4 -2.0230E-08
#      9776
 1.7416  71711.1  267.867
 1.9396  49601.1  223.067
 2.1376  36645.7  191.729
 2.3356  33263.5  182.283
 2.5336  30911.2  176.338
 2.7316  29022  170.982
 2.9296  27580.6  166.843
 3.1276  26943.5  164.435
 3.3256  25787.4  160.521
 3.5236  27257.7  164.826
 3.7216  24681.9  158.116
 3.9196  24208.1  155.8
 4.1176  24172.2  155.46
 4.3156  25053.8  158.445
 4.5136  27383.4  164.599
 4.7116  28420.3  168.843
 4.9096  27678.3  166.053
 5.1076  27460.2  165.985
 5.3056  27366.4  165.431
 5.5036  27119.4  164.581
 5.7016  27580.6  165.938
 5.8996  28078.5  166.654
 6.0976  28898.6  170.484
 6.2956  28927.5  169.923
 6.4936  29630.3  171.165
 6.6916  30028.1  173.303
 6.8896  30919.4  175.696
 7.0876  31929.2  179.303
 7.2856  31737.9  177.811
 7.4836  31964.2  177.786
 7.6816  32715.1  180.375
 7.8796  33509  182.568
 8.0776  35211.1  188.133
 8.2756  36695.2  190.68
 8.4736  37487.3  192.53
 8.6716  36744.7  191.235
 8.8696  37349.3  193.31
 9.0676  36231.6  189.722
 9.2656  35356.6  188.111
 9.4636  34427.6  184.091
 9.6616  33572.7  182.514
 9.8596  32875.7  180.047
 10.0576  30826.6  175.011
 10.2556  30182.7  173.626
 10.4536  29066.2  169.981
 10.6516  28370.9  168.147
 10.8496  27110.9  163.792
 11.0476  26150.9  160.884
 11.2456  25531.4  159.493
 11.4436  25614.6  158.927
 11.6416  27197.8  164.112
 11.8396  24943.8  157.375
 12.0376  24301.6  154.993
 12.2356  23579.1  153.07
 12.4336  23649  152.851
 12.6316  23767.3  153.491
 12.8296  23832.9  153.321
 13.0276  24019.4  154.129
 13.2256  24584  156.297
 13.4236  24502  155.803
 13.6216  24703.9  156.437
 13.8196  26933.1  162.82
 14.0176  23832.8  153.736
 14.2156  23336.8  151.152
 14.4136  22410.2  149.516
 14.6116  21933.6  147.095
 14.8096  21170.1  144.515
 15.0076  20324  145.488
 15.2056  19357  137.806
 15.4036  18361.7  135.044
 15.6016  18163.1  133.398
 15.7996  17721.9  132.042
 15.9976  17275.4  133.258
 16.1956  16846.1  129.472
 16.3936  16749.5  128.303
 16.5916  16113.8  126.476
 16.7896  16308.7  127.296
 16.9876  16150.1  128.113
 17.1856  16042.2  126.063
 17.3836  15762.6  124.871
 17.5816  15196.2  123.088
 17.7796  14962.9  122.071
 17.9776  14633.7  121.488
 18.1756  14602  120.119
 18.3736  14147.8  118.706
 18.5716  14097.9  118.257
 18.7696  14150.2  118.044
 18.9676  14092.5  117.603
 19.1656  13820.8  117.051
 19.3636  13710.8  116.775
 19.5616  13626.7  116.582
 19.7596  14039.8  117.73
 19.9576  13942.3  117.37
 20.1556  14791.8  121.43
 20.3536  14003.4  117.525
 20.5516  13544.2  116.026
 20.7496  13026.4  113.726
 20.9476  13053.8  113.608
 21.1456  12910.9  113.308
 21.3436  12928.7  113.331
 21.5416  12825.4  112.896
 21.7396  12553  111.53
 21.9376  12527.6  111.192
 22.1356  12617.5  111.711
 22.3336  12325  110.695
 22.5316  12393.3  111.094
 22.7296  12366.2  110.341
 22.9276  12144.8  110.011
 23.1256  12284.6  110.129
 23.3236  12866.7  113.281
 23.5216  12674.8  112.069
 23.7196  12338.7  110.53
 23.9176  12447.1  110.763
 24.1156  12154.1  109.918
 24.3136  12014.1  110.059
 24.5116  12108.3  110.015
 24.7096  11630.2  107.648
 24.9076  11519  107.159
 25.1056  11284.1  106.528
 25.3036  10982.6  104.606
 25.5016  10959.9  104.538
 25.6996  10948.9  104.07
 25.8976  11026.1  104.871
 26.0956  10812.8  103.857
 26.2936  10682.4  102.895
 26.4916  11167.1  105.064
 26.6896  10765.4  103.466
 26.8876  10653.1  102.771
 27.0856  10488.9  102.041
 27.2836  10319.3  101.105
 27.4816  10252  100.708
 27.6796  10177.1  100.695
 27.8776  10379.7  101.56
 28.0756  9978.66  99.8678
 28.2736  10018.6  99.652
 28.4716  9819.34  98.7042
 28.6696  9901.67  98.9672
 28.8676  9724.11  98.4215
 29.0656  9671.86  98.1326
 29.2636  9605.79  97.5874
 29.4616  9378.42  96.6151
 29.6596  9427.54  96.4389
 29.8576  9157.5  95.7168
 30.0556  9283.15  96.2518
 30.2536  9471.32  97.0174
 30.4516  9415.3  96.3662
 30.6496  9390.88  95.9696
 30.8476  9525.61  97.1135
 31.0456  9463.73  96.7591
 31.2436  9441.53  95.903
 31.4416  9348.37  95.6079
 31.6396  9280.88  95.3127
 31.8376  9509.82  95.9864
 32.0356  9284.03  95.419
 32.2336  9281.28  94.8076
 32.4316  8954.63  93.527
 32.6296  8860.53  92.8793
 32.8276  8917.41  92.9632
 33.0256  8812.05  92.4754
 33.2236  8833.57  92.731
 33.4216  8822.89  92.3713
 33.6196  8863.14  92.8663
 33.8176  8735.21  92.3648
 34.0156  8703.96  91.8286
 34.2136  8732.95  92.0043
 34.4116  8576.08  91.3409
 34.6096  8593.26  91.3083
 34.8076  8520.06  91.3335
 35.0056  8502.3  90.9046
 35.2036  8746.07  92.4325
 35.4016  8473.83  90.8983
 35.5996  8368.09  90.3575
 35.7976  8313.44  90.3329
 35.9956  8575.14  91.3932
 36.1936  8406.65  90.3476
 36.3916  8346.9  90.2134
 36.5896  8269.07  90.7801
 36.7876  8099.85  89.2328
 36.9856  7958  88.4871
 37.1836  7893.2  87.2417
 37.3816  7923.86  87.7776
 37.5796  8067.45  90.2814
 37.7776  8110.11  88.8879
 37.9756  8138.38  88.9288
 38.1736  8135.72  89.1139
 38.3716  8170.27  89.5592
 38.5696  7831.24  88.0565
 38.7676  7785.12  87.3186
 38.9656  7860.51  87.3681
 39.1636  7958.24  88.1845
 39.3616  7929.45  87.9571
 39.5596  7727.72  87.6566
 39.7576  7888.06  87.9568
 39.9556  7914.01  87.7419
 40.1536  7964.87  88.2215
 40.3516  8011.52  88.4858
 40.5496  7932.92  88.3109
 40.7476  7934.12  88.3107
 40.9456  8006.65  88.4782
 41.1436  8026.43  88.3056
 41.3416  7760.97  87.1627
 41.5396  7901.32  87.7559
 41.7376  7874.1  87.8622
 41.9356  7704.61  86.7724
 42.1336  7970.04  88.3976
 42.3316  7683.96  87.0016
 42.5296  7821.21  87.2959
 42.7276  7793.84  87.3756
 42.9256  7843.1  87.5275
 43.1236  7804.16  87.4021
 43.3216  7773.37  86.9951
 43.5196  7663.42  86.4363
 43.7176  7619.44  86.5797
 43.9156  7530.49  85.9934
 44.1136  7474.26  85.2281
 44.3116  7583.92  85.8667
 44.5096  7436.68  85.3338
 44.7076  7402.94  85.0697
 44.9056  7717.43  86.725
 45.1036  7506.47  85.1553
 45.3016  7527.3  85.7703
 45.4996  7631.68  86.3089
 45.6976  7379.03  85.0436
 45.8956  7625.92  86.2634
 46.0936  7671.69  86.524
 46.2916  7472.01  85.3701
 46.4896  7550.45  85.8275
 46.6876  7405.2  85.7296
 46.8856  7453.29  85.2684
 47.0836  7379.15  85.0928
 47.2816  7354.64  84.8324
 47.4796  7398.29  85.1831
 47.6776  7354.39  85.8973
 47.8756  7421.82  85.4395
 48.0736  7398.78  85.7788
 48.2716  7243.99  84.6912
 48.4696  7439.34  85.4067
 48.6676  7316.34  85.2864
 48.8656  7360.55  85.2745
 49.0636  7415.46  85.5351
 49.2616  7213.26  84.4047
 49.4596  7293.62  84.4177
 49.6576  7212.91  84.1801
 49.8556  7329.96  84.8846
 50.0536  7300.44  85.1704
 50.2516  7239.99  84.9498
 50.4496  7222.14  84.499
 50.6476  7292.21  84.5816
 50.8456  7238.21  84.3628
 51.0436  6992.47  83.3635
 51.2416  7077.25  83.5341
 51.4396  6929.62  83.0649
 51.6376  6937.82  82.931
 51.8356  6961.63  82.6966
 52.0336  6936.16  83.0619
 52.2316  6918.48  83.3155
 52.4296  6892.66  82.8576
 52.6276  6830.89  82.5899
 52.8256  6977.3  83.031
 53.0236  7000.16  83.8133
 53.2216  7071.57  84.272
 53.4196  7005.16  83.7862
 53.6176  6915.79  83.7556
 53.8156  6861.32  83.0915
 54.0136  6584.97  81.5838
 54.2116  6807.05  82.5743
 54.4096  6590.34  81.306
 54.6076  6614.01  81.8019
 54.8056  6580.8  81.3665
 55.0036  6546.25  81.5614
 55.2016  6663.7  81.8029
 55.3996  6357.86  79.9023
 55.5976  6463.85  80.7468
 55.7956  6509.65  80.8494
 55.9936  6513.95  81.0019
 56.1916  6366.71  80.1172
 56.3896  6289.08  79.6092
 56.5876  6252.42  79.9312
 56.7856  6260.6  79.4809
 56.9836  6371.66  79.9515
 57.1816  6403.06  80.5232
 57.3796  6292.2  79.64
 57.5776  6264.43  79.3471
 57.7756  6140.26  79.2316
 57.9736  6199.91  79.2912
 58.1716  6084.81  78.8054
 58.3696  5909.49  77.415
 58.5676  5905.78  76.8719
 58.7656  5955.21  77.8618
 58.9636  5955.56  77.8906
 59.1616  6030.58  78.5183
 59.3596  6008.31  77.6392
 59.5576  5947.34  77.3003
 59.7556  5845.57  77.0476
 59.9536  6015.73  78.06
 60.1516  5767.41  77.2615
 60.1996  0.0000000E+00  0.0000000E+00