File: docs/examples/opeando_xrd/IS17_D/Data/IS17_D/17_Da_f00098.xye
# /beamlines/bl04/projects/cycle2025-II/20250340211-lsimonelli/DATA/IS17_D/17_Da_f00098.xye : mythproc.py merge -s 0.006 -l 0.5 -f /beamlines/bl04/inhouse/ff/FlatField/ff_20Nov2024rod8mm60s_17keV.raw -b True -c true -o xye /beamlines/bl04/projects/cycle2025-II/20250340211-lsimonelli/DATA/IS17_D/17_Da_00098.dat
# IsMon = [6753410, 6754518, 6755651]  IsPos = [-1.5000, -2.4884, -3.4988]
# Wave = 0.4962  CalPath /beamlines/bl04/projects/cycle2025-II/20250340211-lsimonelli/DATA/Align/Si_Pos1_25keV_f00001.cal
# Date = 2025-09-24_20:52:17 Dt = 4.8000  Bin = 0.0060  <imon> = 6754526 +/- 915 (Min/Max) 6753410 / 6755651
# icurr 249.6080  mocoIn 1.7023E-05  mocoOut 0.7984  i15 7.07271e+06  imon 6.75453e+06  i7 4.0000  iEMpd_timer 4.8000  iEMpd_1 3.4490E-08  iEMpd_2 7.8645E-08  iEMpd_3 1.6934E-08  iEMpd_4 4.8098E-08  iEMhp_timer 4.8000  iEMhp_1 4.8761E-06  iEMhp_2 -2.5079E-08  iEMhp_3 -2.5437E-08  iEMhp_4 -2.1421E-08
#      9776
 1.7416  70055.4  264.778
 1.9396  46008  214.848
 2.1376  32788  181.372
 2.3356  29152.7  170.662
 2.5336  27176.8  165.357
 2.7316  25672.9  160.816
 2.9296  24708.8  157.94
 3.1276  24039.4  155.335
 3.3256  23757.5  154.086
 3.5236  25388.4  159.089
 3.7216  23503.6  154.31
 3.9196  22872.3  151.46
 4.1176  22749.4  150.817
 4.3156  23998.8  155.067
 4.5136  26094.5  160.685
 4.7116  27444.4  165.928
 4.9096  26910.2  163.74
 5.1076  26475.8  162.992
 5.3056  27016.3  164.376
 5.5036  26539.6  162.811
 5.7016  26973.6  164.107
 5.8996  27655.4  165.374
 6.0976  28384  168.989
 6.2956  28730.2  169.348
 6.4936  29493.7  170.773
 6.6916  29684.6  172.325
 6.8896  30489.7  174.505
 7.0876  31624.4  178.374
 7.2856  31304.6  176.607
 7.4836  31677.7  176.996
 7.6816  32571.4  180.009
 7.8796  34051.7  184.032
 8.0776  35398.4  188.624
 8.2756  37043.3  191.565
 8.4736  37487  192.52
 8.6716  36863.8  191.547
 8.8696  36688.3  191.562
 9.0676  36028.9  189.201
 9.2656  34933.1  186.98
 9.4636  34560.2  184.405
 9.6616  33706.2  182.873
 9.8596  32458.9  178.938
 10.0576  30762.7  174.861
 10.2556  29576.1  171.887
 10.4536  28476.2  168.269
 10.6516  27827.1  166.526
 10.8496  27286.7  164.317
 11.0476  26573.8  162.184
 11.2456  25982.3  160.895
 11.4436  26092.8  160.408
 11.6416  26364.5  161.61
 11.8396  24398.4  155.668
 12.0376  24313.2  155.035
 12.2356  23810.2  153.824
 12.4336  23813.7  153.384
 12.6316  23310.1  152.018
 12.8296  23666.4  152.814
 13.0276  24257.8  154.89
 13.2256  24448.8  155.865
 13.4236  24375.4  155.397
 13.6216  24059.7  154.409
 13.8196  24066.4  154.198
 14.0176  23856.1  153.808
 14.2156  23234.2  150.839
 14.4136  22322.6  149.224
 14.6116  21844.7  146.823
 14.8096  21256.3  144.818
 15.0076  20075.9  144.53
 15.2056  20039.6  140.212
 15.4036  19053.9  137.554
 15.6016  18775.3  135.619
 15.7996  18082.4  133.372
 15.9976  17351.3  133.57
 16.1956  16706.6  128.97
 16.3936  16453.8  127.171
 16.5916  16260.4  127.052
 16.7896  16084.7  126.421
 16.9876  16163.8  128.193
 17.1856  15926.9  125.624
 17.3836  15407.2  123.462
 17.5816  14963.5  122.154
 17.7796  14936.5  121.975
 17.9776  14552.9  121.176
 18.1756  14689.2  120.453
 18.3736  14377.4  119.678
 18.5716  14233.6  118.831
 18.7696  14265.5  118.536
 18.9676  13907.1  116.849
 19.1656  13909.8  117.407
 19.3636  13948.6  117.779
 19.5616  13715.3  116.958
 19.7596  13880.6  117.063
 19.9576  14241.1  118.62
 20.1556  14682.8  120.991
 20.3536  13735.9  116.401
 20.5516  13302.4  114.997
 20.7496  12965.8  113.383
 20.9476  12844.3  112.692
 21.1456  12980.3  113.617
 21.3436  12793.1  112.743
 21.5416  12842.4  112.961
 21.7396  12592.8  111.701
 21.9376  12719.9  112.039
 22.1356  12692.7  112.194
 22.3336  12619.9  112.01
 22.5316  12646.4  112.216
 22.7296  12712.7  111.864
 22.9276  12558.7  111.861
 23.1256  12646.9  111.732
 23.3236  12577.3  111.987
 23.5216  12389  110.795
 23.7196  12263.3  110.403
 23.9176  12293.8  110.078
 24.1156  12027.4  109.345
 24.3136  11580.3  108.079
 24.5116  11662.8  107.993
 24.7096  11472  106.926
 24.9076  11168.6  105.529
 25.1056  10901.6  104.715
 25.3036  10959.7  104.503
 25.5016  11038  104.91
 25.6996  11068.7  104.637
 25.8976  10859.7  104.078
 26.0956  10951.1  104.533
 26.2936  10854.1  103.719
 26.4916  11000.4  104.298
 26.6896  10570  102.528
 26.8876  10389.4  101.506
 27.0856  10605.2  102.606
 27.2836  10131.2  100.178
 27.4816  10151.7  100.21
 27.6796  10101.2  100.337
 27.8776  10066.8  100.028
 28.0756  10135.1  100.646
 28.2736  10007.5  99.6003
 28.4716  9881.92  99.0228
 28.6696  9787.4  98.3958
 28.8676  9789.67  98.7473
 29.0656  9637.61  97.9624
 29.2636  9576.39  97.445
 29.4616  9530.2  97.3875
 29.6596  9671.51  97.6746
 29.8576  9445.5  97.2082
 30.0556  9544.81  97.5915
 30.2536  9595.28  97.6457
 30.4516  9358.6  96.095
 30.6496  9303.1  95.5389
 30.8476  9395.83  96.4553
 31.0456  9269.81  95.768
 31.2436  9236.55  94.8674
 31.4416  9065.94  94.1672
 31.6396  9030.42  94.0233
 31.8376  8989.04  93.3501
 32.0356  8968.31  93.8108
 32.2336  8983.71  93.2896
 32.4316  8982.02  93.6838
 32.6296  8915.12  93.1707
 32.8276  8931.72  93.0305
 33.0256  8815.76  92.5041
 33.2236  8754.66  92.3301
 33.4216  8848.92  92.5104
 33.6196  8829.84  92.7054
 33.8176  8836.46  92.9004
 34.0156  8673.58  91.6629
 34.2136  8543.73  91.0135
 34.4116  8602.77  91.4714
 34.6096  8509.44  90.8558
 34.8076  8475.3  91.0881
 35.0056  8438.52  90.5776
 35.2036  8425.7  90.7141
 35.4016  8427.23  90.6478
 35.5996  8353.32  90.2843
 35.7976  8240.3  89.9405
 35.9956  8350.76  90.1921
 36.1936  8385.04  90.2467
 36.3916  8245.14  89.6618
 36.5896  8176.67  90.2533
 36.7876  8243.21  90.0258
 36.9856  7953.78  88.4602
 37.1836  8263.69  89.2674
 37.3816  8161.63  89.0767
 37.5796  7953.8  89.6409
 37.7776  7926.37  87.8763
 37.9756  7989.06  88.1106
 38.1736  8000.15  88.3606
 38.3716  7846.63  87.7846
 38.5696  7844.39  88.1441
 38.7676  7783.08  87.3112
 38.9656  7914.38  87.6826
 39.1636  7679.53  86.6301
 39.3616  7783.08  87.1435
 39.5596  7644.62  87.1922
 39.7576  7708.92  86.9408
 39.9556  7864.75  87.4575
 40.1536  7940.31  88.0835
 40.3516  7956.68  88.1874
 40.5496  7915.63  88.2075
 40.7476  7927.5  88.2888
 40.9456  7996.08  88.4211
 41.1436  7871.07  87.4483
 41.3416  7747.86  87.0921
 41.5396  7773.84  87.047
 41.7376  7899.21  88.0109
 41.9356  7764.38  87.1157
 42.1336  7798.18  87.4508
 42.3316  7668.5  86.9165
 42.5296  7807.62  87.2218
 42.7276  7795.72  87.3939
 42.9256  7755.06  87.036
 43.1236  7637.8  86.4835
 43.3216  7671.34  86.4155
 43.5196  7559  85.8462
 43.7176  7638.55  86.6966
 43.9156  7572.28  86.2265
 44.1136  7378.99  84.6797
 44.3116  7577.37  85.8236
 44.5096  7473.75  85.5391
 44.7076  7518.22  85.725
 44.9056  7466.28  85.3009
 45.1036  7334.77  84.1725
 45.3016  7325.78  84.6195
 45.4996  7289.56  84.3501
 45.6976  7193.78  83.965
 45.8956  7334.04  84.6033
 46.0936  7335.2  84.3713
 46.2916  7236.34  84.0206
 46.4896  7275.69  84.2838
 46.6876  7116.12  84.0479
 46.8856  7119.43  83.3319
 47.0836  7083.42  83.3774
 47.2816  6971.2  82.5868
 47.4796  7028.97  83.0408
 47.6776  6875.22  83.045
 47.8756  7021.27  83.1108
 48.0736  7008.12  83.4858
 48.2716  6789.8  81.993
 48.4696  6944.95  82.5276
 48.6676  6840.18  82.4717
 48.8656  6868.81  82.3746
 49.0636  6912.41  82.5747
 49.2616  6692.88  81.3005
 49.4596  6776.07  81.373
 49.6576  6711.3  81.1997
 49.8556  6690.46  81.0983
 50.0536  6640.58  81.2289
 50.2516  6642.63  81.3745
 50.4496  6624.84  80.9269
 50.6476  6688.67  81.0074
 50.8456  6644.98  80.8233
 51.0436  6586.57  80.9037
 51.2416  6491.2  79.9974
 51.4396  6386.59  79.7328
 51.6376  6448.06  79.9492
 51.8356  6440.19  79.5373
 52.0336  6385.83  79.7023
 52.2316  6470.52  80.5714
 52.4296  6447.99  80.1208
 52.6276  6384.77  79.8474
 52.8256  6513.3  80.2088
 53.0236  6229.68  79.0736
 53.2216  6242.94  79.1651
 53.4196  6137.15  78.441
 53.6176  6167.57  79.1062
 53.8156  6252.59  79.3254
 54.0136  6200.6  79.1608
 54.2116  6116.98  78.2991
 54.4096  6177.6  78.7358
 54.6076  6151  78.9082
 54.8056  6105.68  78.4083
 55.0036  6159.68  79.0153
 55.2016  6115.44  78.3365
 55.3996  6143.21  78.5576
 55.5976  6061.76  78.2218
 55.7956  6141.93  78.5486
 55.9936  6124.98  78.5792
 56.1916  6165.24  78.8574
 56.3896  6165.36  78.8451
 56.5876  5971.1  78.1365
 56.7856  5965  77.594
 56.9836  5956.75  77.3226
 57.1816  6052.68  78.3148
 57.3796  6040.73  78.0424
 57.5776  6087.92  78.2681
 57.7756  5968.26  78.1229
 57.9736  5931.05  77.5662
 58.1716  6025.73  78.4146
 58.3696  6029.09  78.1906
 58.5676  6074.73  77.9636
 58.7656  6038.14  78.3962
 58.9636  6113.03  78.9119
 59.1616  6032.03  78.5158
 59.3596  6168.6  78.6571
 59.5576  6088.01  78.1982
 59.7556  6089.12  78.6253
 59.9536  6142.39  78.8665
 60.1516  6019.9  78.9235
 60.1996  0.0000000E+00  0.0000000E+00