File: docs/examples/opeando_xrd/IS17_D/Data/IS17_D/17_Da_f00018.xye
# /beamlines/bl04/projects/cycle2025-II/20250340211-lsimonelli/DATA/IS17_D/17_Da_f00018.xye : mythproc.py merge -s 0.006 -l 0.5 -f /beamlines/bl04/inhouse/ff/FlatField/ff_20Nov2024rod8mm60s_17keV.raw -b True -c true -o xye /beamlines/bl04/projects/cycle2025-II/20250340211-lsimonelli/DATA/IS17_D/17_Da_00018.dat
# IsMon = [6741046, 6739458, 6743510]  IsPos = [-1.5000, -2.4885, -3.4986]
# Wave = 0.4962  CalPath /beamlines/bl04/projects/cycle2025-II/20250340211-lsimonelli/DATA/Align/Si_Pos1_25keV_f00001.cal
# Date = 2025-09-23_22:35:27 Dt = 4.8000  Bin = 0.0060  <imon> = 6741338 +/- 1667 (Min/Max) 6739458 / 6743510
# icurr 248.8594  mocoIn 1.6984E-05  mocoOut 0.7971  i15 7.05697e+06  imon 6.74134e+06  i7 6.3333  iEMpd_timer 4.8000  iEMpd_1 3.5937E-08  iEMpd_2 7.7250E-08  iEMpd_3 1.7067E-08  iEMpd_4 4.7330E-08  iEMhp_timer 4.8000  iEMhp_1 4.8642E-06  iEMhp_2 -2.4782E-08  iEMhp_3 -2.3141E-08  iEMhp_4 -2.1009E-08
#      9776
 1.7416  67166.4  259.245
 1.9396  43972.3  210.034
 2.1376  30461.6  174.808
 2.3356  27248  164.983
 2.5336  28559.3  169.501
 2.7316  24263.3  156.348
 2.9296  22629.9  151.155
 3.1276  22103.7  148.948
 3.3256  21889.4  147.915
 3.5236  23853  154.357
 3.7216  21661  148.138
 3.9196  21791.8  147.836
 4.1176  21195  145.575
 4.3156  22592.2  150.451
 4.5136  25563.1  159.047
 4.7116  26196.4  162.111
 4.9096  25152.1  158.304
 5.1076  25020.2  158.446
 5.3056  25327.5  159.052
 5.5036  24865.7  157.606
 5.7016  25174.2  158.539
 5.8996  25811.3  159.771
 6.0976  26427.3  163.06
 6.2956  26896.1  163.855
 6.4936  27935.8  166.206
 6.6916  27908.4  167.091
 6.8896  29027.2  170.27
 7.0876  29962.8  173.621
 7.2856  29751  172.169
 7.4836  30507  173.695
 7.6816  30833.9  175.137
 7.8796  32476.9  179.739
 8.0776  36764.9  192.236
 8.2756  36658.2  190.566
 8.4736  36524  190.037
 8.6716  35752.6  188.648
 8.8696  36456.3  190.934
 9.0676  35574  187.985
 9.2656  33667.3  183.55
 9.4636  32931  179.981
 9.6616  32153.2  178.593
 9.8596  30937.1  174.7
 10.0576  29350.6  170.806
 10.2556  28247.1  167.982
 10.4536  32751.2  180.462
 10.6516  33956.5  183.969
 10.8496  26314.8  161.365
 11.0476  26088  160.652
 11.2456  28743.6  169.241
 11.4436  25022.4  157.089
 11.6416  24789.6  156.708
 11.8396  23557.4  152.959
 12.0376  23197.4  151.418
 12.2356  24989.4  157.619
 12.4336  23764.3  153.225
 12.6316  22340  148.819
 12.8296  23115.8  151.027
 13.0276  23424.1  152.205
 13.2256  23029.1  151.27
 13.4236  23282.6  151.88
 13.6216  23112.7  151.339
 13.8196  23969.1  153.887
 14.0176  22858.7  150.556
 14.2156  22365.2  147.99
 14.4136  21099.7  145.078
 14.6116  20949.6  143.787
 14.8096  20146.3  140.98
 15.0076  19319.5  141.784
 15.2056  18765.6  135.681
 15.4036  17936  133.453
 15.6016  17700.1  131.681
 15.7996  17517.5  131.272
 15.9976  16528.7  130.364
 16.1956  16125.8  126.699
 16.3936  15585.9  123.764
 16.5916  15620.5  124.514
 16.7896  15632.7  124.624
 16.9876  15473.9  125.43
 17.1856  15249.2  122.932
 17.3836  14445.6  119.539
 17.5816  14298.8  119.41
 17.7796  14369  119.636
 17.9776  14504.9  120.974
 18.1756  15593.3  124.106
 18.3736  15462.3  124.115
 18.5716  13931.3  117.562
 18.7696  13922.5  117.105
 18.9676  13537.8  115.285
 19.1656  13504.7  115.687
 19.3636  13381  115.356
 19.5616  13257  114.987
 19.7596  13205.6  114.182
 19.9576  13996.3  117.605
 20.1556  13139  114.456
 20.3536  13123.4  113.781
 20.5516  12719.5  112.449
 20.7496  12517.9  111.406
 20.9476  12965.2  113.219
 21.1456  13057.9  113.953
 21.3436  12409.3  111.041
 21.5416  12311.5  110.607
 21.7396  12100.3  109.501
 21.9376  12204.4  109.739
 22.1356  12482  111.13
 22.3336  12334.6  110.72
 22.5316  12352  110.905
 22.7296  12167.8  109.455
 22.9276  11865.4  108.731
 23.1256  12462.5  110.906
 23.3236  12044.9  109.576
 23.5216  12019.9  109.13
 23.7196  11850.1  108.514
 23.9176  11844  108.039
 24.1156  11710.3  107.887
 24.3136  11439.3  107.423
 24.5116  11443.9  106.98
 24.7096  11263.3  105.953
 24.9076  11138  105.385
 25.1056  11039.9  105.114
 25.3036  10686.9  103.198
 25.5016  10764  103.599
 25.6996  10602.9  102.41
 25.8976  10898.6  104.266
 26.0956  10767.5  103.653
 26.2936  10641.4  102.696
 26.4916  10688.7  102.805
 26.6896  10315.6  101.283
 26.8876  10244.7  100.791
 27.0856  10304.2  101.101
 27.2836  10097.5  100.163
 27.4816  10085  99.8751
 27.6796  9884.72  99.2581
 27.8776  10151.1  100.445
 28.0756  9852.97  99.241
 28.2736  9858.42  98.857
 28.4716  9560.66  97.4002
 28.6696  9667.5  97.7904
 28.8676  9516.32  97.3616
 29.0656  9381.63  96.6496
 29.2636  9345.14  96.1794
 29.4616  9291.26  96.1636
 29.6596  9384.19  96.2153
 29.8576  9219.19  96.0396
 30.0556  9502.69  97.3788
 30.2536  9292.29  96.0908
 30.4516  9141  94.9646
 30.6496  9218.26  95.0958
 30.8476  9080.87  94.8166
 31.0456  8990.91  94.3064
 31.2436  8969.72  93.4837
 31.4416  8797.77  92.7669
 31.6396  9154.75  94.6762
 31.8376  8900.32  92.9072
 32.0356  8954.73  93.7478
 32.2336  8751.7  92.0683
 32.4316  8765.13  92.5492
 32.6296  8675.25  91.8414
 32.8276  8679.33  91.7082
 33.0256  8660.38  91.6872
 33.2236  8602.45  91.5191
 33.4216  8619.58  91.3021
 33.6196  8519.61  91.0675
 33.8176  8642.16  91.8767
 34.0156  8389.06  90.1463
 34.2136  8368.84  90.075
 34.4116  8443.5  90.6273
 34.6096  8374.19  90.1343
 34.8076  8345.95  90.3853
 35.0056  8312.98  89.9018
 35.2036  8226.09  89.6368
 35.4016  8182.2  89.3238
 35.5996  8194  89.4206
 35.7976  8059.22  88.9505
 35.9956  8172.97  89.2284
 36.1936  8028.89  88.3128
 36.3916  8079.91  88.7568
 36.5896  8229.36  91.0186
 36.7876  7996.78  88.674
 36.9856  7791.49  87.5578
 37.1836  7970.5  87.6725
 37.3816  8022.94  88.3156
 37.5796  7915.15  89.4219
 37.7776  7755.89  86.9222
 37.9756  7787.08  86.977
 38.1736  7969.32  88.1834
 38.3716  7899.12  88.0725
 38.5696  7720.81  87.4427
 38.7676  7559.34  86.0477
 38.9656  7538.64  85.5794
 39.1636  7678.82  86.6035
 39.3616  7747.75  86.952
 39.5596  7536.02  86.5798
 39.7576  7580.2  86.213
 39.9556  7621.74  86.1013
 40.1536  7785.41  87.2201
 40.3516  7781.32  87.2859
 40.5496  7741.25  87.0289
 40.7476  7799.75  87.57
 40.9456  7704.74  86.7881
 41.1436  7752.76  86.7887
 41.3416  7686.61  86.7477
 41.5396  7496.07  85.4786
 41.7376  7661.27  86.6764
 41.9356  7605  86.2192
 42.1336  7625.97  86.4785
 42.3316  7598.14  86.5165
 42.5296  7618.36  86.1486
 42.7276  7707.02  86.8952
 42.9256  7508.55  85.6399
 43.1236  7489.12  85.6381
 43.3216  7559.26  85.8929
 43.5196  7412.19  85.0182
 43.7176  7435.91  85.5368
 43.9156  7426.78  85.3972
 44.1136  7258.16  83.9863
 44.3116  7277.04  84.1029
 44.5096  7308.34  84.5922
 44.7076  7339.81  84.7057
 44.9056  7294.82  84.3087
 45.1036  7158.84  83.1565
 45.3016  7119.21  83.4142
 45.4996  7145.61  83.5078
 45.6976  7011.57  82.8873
 45.8956  7167.86  83.6423
 46.0936  7121.06  83.132
 46.2916  7073.69  83.0764
 46.4896  7071.26  83.0861
 46.6876  7028.5  83.5259
 46.8856  6988.4  82.6761
 47.0836  6840.13  81.9313
 47.2816  6806.88  81.6165
 47.4796  6872.68  82.1141
 47.6776  6711.67  82.0586
 47.8756  6779.18  81.6673
 48.0736  6816.06  82.3117
 48.2716  6700.51  81.4487
 48.4696  6782.8  81.5591
 48.6676  6666.34  81.4214
 48.8656  6742.44  81.6247
 49.0636  6789.95  81.8482
 49.2616  6664.99  81.1286
 49.4596  6685.21  80.8182
 49.6576  6591.07  80.4772
 49.8556  6566.04  80.3403
 50.0536  6585.52  80.8883
 50.2516  6601.51  81.0931
 50.4496  6408.78  79.6024
 50.6476  6535.3  80.0708
 50.8456  6453.29  79.6577
 51.0436  6373.24  79.585
 51.2416  6384.23  79.3322
 51.4396  6215.28  78.6621
 51.6376  6371.52  79.4799
 51.8356  6364.08  79.0707
 52.0336  6187.63  78.4492
 52.2316  6063.12  77.9869
 52.4296  6338.89  79.44
 52.6276  6254.79  79.0312
 52.8256  6279.02  78.7485
 53.0236  6099.69  78.2484
 53.2216  6232.86  79.1042
 53.4196  6012.94  77.6403
 53.6176  6016.25  78.1323
 53.8156  6023.08  77.8611
 54.0136  6033.73  78.0873
 54.2116  6053.08  77.8858
 54.4096  6133.81  78.4565
 54.6076  5914.77  77.3775
 54.8056  5885.96  76.9843
 55.0036  5920.62  77.4669
 55.2016  5890.73  76.887
 55.3996  5996.35  77.6149
 55.5976  5977.53  77.6709
 55.7956  5993.08  77.5956
 55.9936  5933.98  77.3425
 56.1916  6014.57  77.8835
 56.3896  6038.85  78.0323
 56.5876  5842.75  77.293
 56.7856  5835.22  76.7376
 56.9836  5789.81  76.2271
 57.1816  5902.72  77.3405
 57.3796  5947.76  77.41
 57.5776  5885.51  76.96
 57.7756  5875.85  77.5189
 57.9736  5845.3  77.0013
 58.1716  5831.91  77.144
 58.3696  5867.02  77.1392
 58.5676  5872.7  76.6666
 58.7656  5907.75  77.5511
 58.9636  5954.53  77.8883
 59.1616  5839.5  77.2558
 59.3596  6017.23  77.6793
 59.5576  5919.88  77.1049
 59.7556  5892.26  77.3379
 59.9536  5863.09  77.0466
 60.1516  5787.13  77.3766
 60.1996  0.0000000E+00  0.0000000E+00