File: docs/examples/opeando_xrd/IS17_D/Data/IS17_D/17_Da_f00076.xye
# /beamlines/bl04/projects/cycle2025-II/20250340211-lsimonelli/DATA/IS17_D/17_Da_f00076.xye : mythproc.py merge -s 0.006 -l 0.5 -f /beamlines/bl04/inhouse/ff/FlatField/ff_20Nov2024rod8mm60s_17keV.raw -b True -c true -o xye /beamlines/bl04/projects/cycle2025-II/20250340211-lsimonelli/DATA/IS17_D/17_Da_00076.dat
# IsMon = [6785253, 6787277, 6785219]  IsPos = [-1.4999, -2.4884, -3.4988]
# Wave = 0.4962  CalPath /beamlines/bl04/projects/cycle2025-II/20250340211-lsimonelli/DATA/Align/Si_Pos1_25keV_f00001.cal
# Date = 2025-09-24_14:42:23 Dt = 4.8000  Bin = 0.0060  <imon> = 6785916 +/- 962 (Min/Max) 6785219 / 6787277
# icurr 252.0352  mocoIn 1.7193E-05  mocoOut 0.8064  i15 7.10086e+06  imon 6.78592e+06  i7 7.3333  iEMpd_timer 4.8000  iEMpd_1 3.4176E-08  iEMpd_2 7.8306E-08  iEMpd_3 1.6148E-08  iEMpd_4 4.6979E-08  iEMhp_timer 4.8000  iEMhp_1 4.9244E-06  iEMhp_2 -2.5325E-08  iEMhp_3 -2.3557E-08  iEMhp_4 -2.1476E-08
#      9776
 1.7416  68765.3  262.319
 1.9396  44773.3  211.944
 2.1376  31435.1  177.583
 2.3356  28088.5  167.513
 2.5336  28111.5  168.171
 2.7316  24824  158.129
 2.9296  23731  154.772
 3.1276  22936.9  151.718
 3.3256  22585.8  150.227
 3.5236  24429.1  156.045
 3.7216  22532.2  151.088
 3.9196  22683.8  150.828
 4.1176  21969.9  148.21
 4.3156  23268.3  152.69
 4.5136  26541.9  162.054
 4.7116  27000.7  164.58
 4.9096  26312.8  161.913
 5.1076  25601.9  160.278
 5.3056  25992  161.23
 5.5036  25855.2  160.696
 5.7016  26197.4  161.728
 5.8996  26865.8  163.007
 6.0976  27682.7  166.889
 6.2956  28016.4  167.232
 6.4936  28650.1  168.309
 6.6916  29071.9  170.539
 6.8896  30092.6  173.367
 7.0876  30993.1  176.663
 7.2856  30900  175.463
 7.4836  31867.6  177.528
 7.6816  32411.3  179.567
 7.8796  33857.2  183.52
 8.0776  38635.1  197.061
 8.2756  38479.7  195.239
 8.4736  37867  193.491
 8.6716  37426.1  192.995
 8.8696  38170  195.413
 9.0676  37291.5  192.495
 9.2656  35404.8  188.255
 9.4636  34958.1  185.477
 9.6616  34207.2  184.237
 9.8596  32919.8  180.193
 10.0576  31170.6  175.999
 10.2556  29923.9  172.881
 10.4536  33991.5  183.831
 10.6516  37510.8  193.336
 10.8496  27835.7  165.967
 11.0476  27785.4  165.841
 11.2456  30887.2  175.43
 11.4436  26990.7  163.151
 11.6416  26096.1  160.785
 11.8396  24881  157.197
 12.0376  24462.6  155.514
 12.2356  26775.1  163.106
 12.4336  25176.1  157.707
 12.6316  23768.1  153.502
 12.8296  24463.1  155.367
 13.0276  24771  156.521
 13.2256  24443.3  155.847
 13.4236  24452.6  155.649
 13.6216  24328.3  155.266
 13.8196  25420.2  158.478
 14.0176  24368.3  155.45
 14.2156  23686.2  152.299
 14.4136  22235.9  148.93
 14.6116  22045.4  147.498
 14.8096  21263  144.848
 15.0076  20420.5  145.773
 15.2056  19866.9  139.609
 15.4036  19032  137.474
 15.6016  18735.3  135.478
 15.7996  18292  134.152
 15.9976  17325.3  133.496
 16.1956  16898.6  129.716
 16.3936  16446.6  127.15
 16.5916  16445.3  127.78
 16.7896  16315.6  127.327
 16.9876  16210.5  128.381
 17.1856  16192.3  126.654
 17.3836  15160.4  122.462
 17.5816  15142.2  122.869
 17.7796  15200.3  123.034
 17.9776  15391.1  124.62
 18.1756  16362.5  127.134
 18.3736  16264.5  127.282
 18.5716  14759.4  121.004
 18.7696  14730.7  120.456
 18.9676  14173.5  117.962
 19.1656  14213.5  118.685
 19.3636  14126.6  118.525
 19.5616  14089.5  118.539
 19.7596  14003.2  117.584
 19.9576  14738.1  120.687
 20.1556  13796.1  117.282
 20.3536  13637.4  115.977
 20.5516  13321.5  115.077
 20.7496  13035.7  113.778
 20.9476  13419.3  115.189
 21.1456  13797.9  117.135
 21.3436  13044.5  113.844
 21.5416  12968.8  113.518
 21.7396  12643  111.927
 21.9376  12874  112.71
 22.1356  13242.5  114.44
 22.3336  13005  113.705
 22.5316  12825.2  113.007
 22.7296  12504.9  110.943
 22.9276  12633.4  112.198
 23.1256  13210.2  114.199
 23.3236  12420.8  111.278
 23.5216  12639.5  111.921
 23.7196  12517.3  111.326
 23.9176  12436  110.715
 24.1156  12213.8  110.194
 24.3136  12034  110.167
 24.5116  11915.3  109.149
 24.7096  11872.7  108.77
 24.9076  11503.3  107.084
 25.1056  11405.2  107.1
 25.3036  11208.2  105.678
 25.5016  11322.9  106.258
 25.6996  11264.5  105.551
 25.8976  11352.6  106.415
 26.0956  11312.4  106.249
 26.2936  11123.3  104.995
 26.4916  11181.6  105.153
 26.6896  10748.2  103.392
 26.8876  10619.1  102.616
 27.0856  10823.4  103.659
 27.2836  10445.6  101.725
 27.4816  10589.5  102.347
 27.6796  10254.7  101.099
 27.8776  10654.3  102.904
 28.0756  10347.5  101.698
 28.2736  10387.1  101.473
 28.4716  10050.3  99.8548
 28.6696  10093.6  99.9236
 28.8676  9950  99.5522
 29.0656  9823.46  98.9017
 29.2636  9847.54  98.8125
 29.4616  9742.17  98.4685
 29.6596  9821.38  98.4303
 29.8576  9532.81  97.6579
 30.0556  9809  98.9309
 30.2536  9696.88  98.1632
 30.4516  9689.58  97.7843
 30.6496  9527.05  96.6844
 30.8476  9416.34  96.5639
 31.0456  9475.75  96.8251
 31.2436  9411.64  95.7645
 31.4416  9393.73  95.8411
 31.6396  9727.82  97.5854
 31.8376  9410.16  95.5195
 32.0356  9293.74  95.4991
 32.2336  9135.44  94.0676
 32.4316  9082.05  94.201
 32.6296  9032.42  93.778
 32.8276  9010.57  93.4351
 33.0256  8971.49  93.3174
 33.2236  8996.99  93.5923
 33.4216  8965.98  93.1249
 33.6196  8935  93.2557
 33.8176  9014.63  93.837
 34.0156  8721.37  91.9178
 34.2136  8779.27  92.259
 34.4116  8645.51  91.7045
 34.6096  8715.71  91.9516
 34.8076  8636.59  91.9502
 35.0056  8736.75  92.1655
 35.2036  8674.94  92.0424
 35.4016  8612.62  91.642
 35.5996  8430.73  90.698
 35.7976  8591.73  91.8434
 35.9956  8551.97  91.2702
 36.1936  8459.19  90.6494
 36.3916  8378.41  90.3816
 36.5896  8502.3  92.0406
 36.7876  8439.22  91.0916
 36.9856  8194.59  89.7923
 37.1836  8292.52  89.4242
 37.3816  8371.12  90.2193
 37.5796  8153.44  90.7659
 37.7776  8116.62  88.9296
 37.9756  8158.93  89.0466
 38.1736  8315.59  90.0928
 38.3716  8182.28  89.6441
 38.5696  8029.84  89.1798
 38.7676  7842.44  87.6362
 38.9656  7987.4  88.0806
 39.1636  7888.62  87.7999
 39.3616  8054.87  88.6462
 39.5596  7944.22  88.8823
 39.7576  7942.49  88.2524
 39.9556  8023.9  88.3406
 40.1536  8089.5  88.9068
 40.3516  8149.21  89.243
 40.5496  8164.18  89.5902
 40.7476  7972.05  88.5377
 40.9456  8088.99  88.9257
 41.1436  8062.37  88.5043
 41.3416  7984.41  88.4111
 41.5396  7941.48  87.9754
 41.7376  8011.24  88.6316
 41.9356  7936.6  88.0766
 42.1336  7971.85  88.4213
 42.3316  7976.83  88.6497
 42.5296  8004.3  88.3103
 42.7276  7984.55  88.4475
 42.9256  7850.41  87.5653
 43.1236  7864.92  87.7598
 43.3216  7884.29  87.6205
 43.5196  7793.78  87.1776
 43.7176  7766.19  87.4119
 43.9156  7655.33  86.6986
 44.1136  7556.9  85.6959
 44.3116  7659.79  86.294
 44.5096  7588.44  86.1973
 44.7076  7478.02  85.4971
 44.9056  7600.3  86.0666
 45.1036  7537.12  85.3341
 45.3016  7455.63  85.3723
 45.4996  7434.73  85.1907
 45.6976  7275.58  84.4498
 45.8956  7470.85  85.3822
 46.0936  7466.75  85.3609
 46.2916  7430.65  85.1356
 46.4896  7461.57  85.3435
 46.6876  7361.38  85.4852
 46.8856  7349.36  84.6759
 47.0836  7225.71  84.2099
 47.2816  7160.09  83.6977
 47.4796  7107.75  83.5046
 47.6776  7051.29  84.1064
 47.8756  7088.74  83.5024
 48.0736  7150.47  84.3288
 48.2716  6968.63  83.0655
 48.4696  7245.04  84.2918
 48.6676  6980.21  83.3159
 48.8656  7042.71  83.4113
 49.0636  7021.78  83.2361
 49.2616  6914.86  82.6371
 49.4596  6970.11  82.5327
 49.6576  6813.48  81.8238
 49.8556  6966.36  82.754
 50.0536  6958.45  83.1526
 50.2516  6857.58  82.6855
 50.4496  6835.03  82.201
 50.6476  6725.93  81.2316
 50.8456  6804.98  81.7913
 51.0436  6590.7  80.9312
 51.2416  6783.86  81.7843
 51.4396  6488.78  80.3694
 51.6376  6574.59  80.7302
 51.8356  6703.98  81.1498
 52.0336  6550.19  80.7234
 52.2316  6538.7  81.0017
 52.4296  6473.89  80.2917
 52.6276  6502.94  80.5922
 52.8256  6550.4  80.4342
 53.0236  6356.16  79.8678
 53.2216  6391.96  80.1212
 53.4196  6266.02  79.2548
 53.6176  6452.52  80.9076
 53.8156  6363.35  80.0138
 54.0136  6403.96  80.4516
 54.2116  6400.12  80.09
 54.4096  6339.98  79.7525
 54.6076  6294.57  79.8265
 54.8056  6322.57  79.7891
 55.0036  6289.47  79.9731
 55.2016  6255.93  79.3055
 55.3996  6246.43  79.2151
 55.5976  6313.01  79.8257
 55.7956  6266.03  79.3444
 55.9936  6178.86  78.9237
 56.1916  6240.55  79.3287
 56.3896  6235.08  79.2903
 56.5876  6153.81  79.3231
 56.7856  6277.33  79.5859
 56.9836  6097.77  78.2304
 57.1816  6115.82  78.7249
 57.3796  6215.98  79.1631
 57.5776  6235.93  79.2225
 57.7756  6131.22  79.1913
 57.9736  6164.87  79.0786
 58.1716  6178.97  79.4165
 58.3696  6117.18  78.7634
 58.5676  6195.52  78.7374
 58.7656  6138.42  79.0494
 58.9636  6229.7  79.6669
 59.1616  6078.15  78.8206
 59.3596  6310.27  79.5658
 59.5576  6268.84  79.3618
 59.7556  6177.43  79.2041
 59.9536  6275.38  79.7264
 60.1516  6143.28  79.739
 60.1996  0.0000000E+00  0.0000000E+00