File: docs/examples/opeando_xrd/IS17_D/Data/IS17_D/17_Da_f00137.xye
# /beamlines/bl04/projects/cycle2025-II/20250340211-lsimonelli/DATA/IS17_D/17_Da_f00137.xye : mythproc.py merge -s 0.006 -l 0.5 -f /beamlines/bl04/inhouse/ff/FlatField/ff_20Nov2024rod8mm60s_17keV.raw -b True -c true -o xye /beamlines/bl04/projects/cycle2025-II/20250340211-lsimonelli/DATA/IS17_D/17_Da_00137.dat
# IsMon = [6767897, 6767436, 6766334]  IsPos = [-1.5000, -2.4883, -3.4988]
# Wave = 0.4962  CalPath /beamlines/bl04/projects/cycle2025-II/20250340211-lsimonelli/DATA/Align/Si_Pos1_25keV_f00001.cal
# Date = 2025-09-25_07:46:23 Dt = 4.8000  Bin = 0.0060  <imon> = 6767222 +/- 656 (Min/Max) 6766334 / 6767897
# icurr 250.9747  mocoIn 1.7120E-05  mocoOut 0.8031  i15 7.08819e+06  imon 6.76722e+06  i7 6.6667  iEMpd_timer 4.8000  iEMpd_1 3.5269E-08  iEMpd_2 8.0200E-08  iEMpd_3 1.7308E-08  iEMpd_4 4.8077E-08  iEMhp_timer 4.8000  iEMhp_1 4.9021E-06  iEMhp_2 -2.7273E-08  iEMhp_3 -2.5485E-08  iEMhp_4 -2.1255E-08
#      9776
 1.7416  69092.5  262.917
 1.9396  45132.5  212.763
 2.1376  32124.2  179.502
 2.3356  28534.4  168.82
 2.5336  27351.5  165.866
 2.7316  25044.7  158.829
 2.9296  24123.8  156.047
 3.1276  23408.4  153.264
 3.3256  23330.1  152.702
 3.5236  24943.1  157.679
 3.7216  22915.1  152.366
 3.9196  22618.3  150.618
 4.1176  22375.3  149.57
 4.3156  23561.4  153.653
 4.5136  26365  161.516
 4.7116  26886.3  164.232
 4.9096  26281.7  161.815
 5.1076  26060.3  161.703
 5.3056  26507.9  162.823
 5.5036  26317.5  162.132
 5.7016  26901.6  163.887
 5.8996  27375.1  164.538
 6.0976  28012.8  167.876
 6.2956  28588.5  168.936
 6.4936  29085.2  169.578
 6.6916  29753.6  172.527
 6.8896  30350.9  174.105
 7.0876  31673.6  178.503
 7.2856  31389.6  176.847
 7.4836  32120.3  178.313
 7.6816  32489.2  179.783
 7.8796  34525.4  185.331
 8.0776  36822.1  192.388
 8.2756  38117.4  194.336
 8.4736  38470.1  195.032
 8.6716  37761.7  193.87
 8.8696  38072.1  195.139
 9.0676  37268.1  192.425
 9.2656  35787.7  189.246
 9.4636  35603.7  187.169
 9.6616  34643  185.409
 9.8596  33393.2  181.48
 10.0576  31814.1  177.816
 10.2556  30825.6  175.462
 10.4536  32028.7  178.443
 10.6516  32145.2  178.982
 10.8496  28281.3  167.287
 11.0476  28062.3  166.667
 11.2456  28911.2  169.72
 11.4436  27677.1  165.213
 11.6416  26317.8  161.463
 11.8396  25270  158.418
 12.0376  24953.8  157.067
 12.2356  25372.3  158.788
 12.4336  24787.3  156.487
 12.6316  23855.3  153.776
 12.8296  24410.5  155.2
 13.0276  24935.2  157.045
 13.2256  24673.1  156.577
 13.4236  24814  156.789
 13.6216  24636.6  156.244
 13.8196  25066.5  157.37
 14.0176  24228  155.001
 14.2156  23627.8  152.11
 14.4136  22480.5  149.748
 14.6116  22330.3  148.449
 14.8096  21534.4  145.77
 15.0076  20440.9  145.831
 15.2056  19818.1  139.445
 15.4036  19084  137.666
 15.6016  18913.7  136.129
 15.7996  18096.6  133.435
 15.9976  17600.8  134.528
 16.1956  16962.5  129.955
 16.3936  16816.8  128.568
 16.5916  16644.7  128.543
 16.7896  16606  128.452
 16.9876  16326.6  128.832
 17.1856  16112.8  126.349
 17.3836  15556  124.039
 17.5816  15345.1  123.692
 17.7796  15097  122.62
 17.9776  15190.6  123.802
 18.1756  15757.4  124.763
 18.3736  15596.1  124.641
 18.5716  14756.9  120.995
 18.7696  14908.4  121.176
 18.9676  14452.4  119.114
 19.1656  14401.9  119.47
 19.3636  14207  118.868
 19.5616  14132.8  118.725
 19.7596  14447.5  119.422
 19.9576  14697.7  120.516
 20.1556  13922.1  117.819
 20.3536  13691.8  116.21
 20.5516  13572.4  116.159
 20.7496  13221.8  114.495
 20.9476  13349.2  114.883
 21.1456  13486.9  115.807
 21.3436  13093.6  114.064
 21.5416  12968.8  113.522
 21.7396  12861.9  112.891
 21.9376  13050.3  113.485
 22.1356  13013.1  113.595
 22.3336  12933.9  113.393
 22.5316  12919.7  113.42
 22.7296  12818.6  112.341
 22.9276  12740.5  112.678
 23.1256  13056  113.531
 23.3236  12665.9  112.383
 23.5216  12791.9  112.587
 23.7196  12577.9  111.803
 23.9176  12560  111.259
 24.1156  12322.3  110.679
 24.3136  12101.9  110.477
 24.5116  11950.1  109.307
 24.7096  11848.5  108.657
 24.9076  11552.8  107.315
 25.1056  11209.4  106.176
 25.3036  11217.4  105.725
 25.5016  11269.4  106.007
 25.6996  11235.4  105.422
 25.8976  11164.2  105.527
 26.0956  11258.4  105.991
 26.2936  11077.3  104.777
 26.4916  11296.3  105.683
 26.6896  10746.6  103.382
 26.8876  10679  102.903
 27.0856  10869.9  103.872
 27.2836  10512.8  102.112
 27.4816  10585.9  102.337
 27.6796  10433.2  101.972
 27.8776  10517.4  102.238
 28.0756  10475.9  102.329
 28.2736  10238.1  100.743
 28.4716  9960.93  99.4199
 28.6696  10131.8  100.112
 28.8676  9963.06  99.625
 29.0656  9842.35  99.0082
 29.2636  9868.8  98.9232
 29.4616  9982.35  99.6788
 29.6596  9942.45  99.0399
 29.8576  9728.44  98.6602
 30.0556  9661.46  98.1959
 30.2536  9820.39  98.79
 30.4516  9585.91  97.2557
 30.6496  9727.22  97.6929
 30.8476  9601.18  97.5046
 31.0456  9415.89  96.5148
 31.2436  9423.89  95.8212
 31.4416  9233.94  95.0269
 31.6396  9652.09  97.2045
 31.8376  9377.74  95.3587
 32.0356  9355.17  95.8141
 32.2336  9169.57  94.2434
 32.4316  9203.87  94.7905
 32.6296  9163.64  94.4611
 32.8276  9183.66  94.3286
 33.0256  9119.4  94.0776
 33.2236  9073.71  93.9895
 33.4216  9045.11  93.54
 33.6196  9022.47  93.7131
 33.8176  8891.15  93.1934
 34.0156  8885.43  92.7768
 34.2136  8861.74  92.6893
 34.4116  8738.92  92.3148
 34.6096  8798.87  92.3921
 34.8076  8665.36  92.0907
 35.0056  8799.8  92.4958
 35.2036  8691.78  92.1231
 35.4016  8587.81  91.5089
 35.5996  8443.77  90.7694
 35.7976  8584.65  91.8006
 35.9956  8549.34  91.2624
 36.1936  8580.17  91.2901
 36.3916  8424.51  90.5884
 36.5896  8450.95  91.7412
 36.7876  8324.23  90.477
 36.9856  8299.2  90.3645
 37.1836  8370.4  89.8482
 37.3816  8368.31  90.2042
 37.5796  8235.27  91.2139
 37.7776  8133.99  89.0168
 37.9756  8106.55  88.7461
 38.1736  8339.93  90.216
 38.3716  8256.67  90.0504
 38.5696  8053.11  89.3093
 38.7676  7909.48  88.0112
 38.9656  8047.45  88.4107
 39.1636  7906.28  87.8947
 39.3616  8090.14  88.8445
 39.5596  7984.25  89.1085
 39.7576  7985.88  88.4946
 39.9556  8014.05  88.2861
 40.1536  8236.95  89.7134
 40.3516  8232.92  89.6989
 40.5496  8152.84  89.5276
 40.7476  8181.65  89.6958
 40.9456  8076.33  88.8508
 41.1436  8052.51  88.4453
 41.3416  8035.58  88.6642
 41.5396  8009.86  88.2926
 41.7376  7960.84  88.3494
 41.9356  7836.7  87.5213
 42.1336  7994.99  88.5455
 42.3316  7979.25  88.6647
 42.5296  7883.88  87.6459
 42.7276  7900.4  87.9782
 42.9256  8009.71  88.4546
 43.1236  7881.91  87.8532
 43.3216  7934.55  87.8943
 43.5196  7756.98  86.9696
 43.7176  7802.42  87.621
 43.9156  7565.69  86.1969
 44.1136  7679.51  86.3928
 44.3116  7768.72  86.9068
 44.5096  7679.54  86.7164
 44.7076  7574.14  86.0479
 44.9056  7566.8  85.8733
 45.1036  7515.09  85.2069
 45.3016  7540.65  85.8529
 45.4996  7407.97  85.0336
 45.6976  7254.42  84.3229
 45.8956  7410.23  85.0356
 46.0936  7342.63  84.4169
 46.2916  7488.32  85.4628
 46.4896  7375.99  84.8576
 46.6876  7494.7  86.2547
 46.8856  7254.96  84.1217
 47.0836  7329.08  84.8083
 47.2816  7156.66  83.6821
 47.4796  7235.37  84.2373
 47.6776  6975.54  83.6465
 47.8756  7146.38  83.8394
 48.0736  7169.28  84.4401
 48.2716  7040.43  83.5308
 48.4696  7163.57  83.8339
 48.6676  7070.13  83.8477
 48.8656  7108.1  83.797
 49.0636  7179.17  84.1667
 49.2616  6921.26  82.5695
 49.4596  6952.15  82.5753
 49.6576  6930.51  82.5246
 49.8556  6896.79  82.3414
 50.0536  6906.02  82.8419
 50.2516  6965.27  83.332
 50.4496  6875.1  82.4421
 50.6476  6950.48  82.5781
 50.8456  6819.83  81.8842
 51.0436  6661.82  81.3705
 51.2416  6716.04  81.3762
 51.4396  6653.84  81.3876
 51.6376  6630.89  81.0768
 51.8356  6689.5  81.0676
 52.0336  6552.88  80.7339
 52.2316  6495.18  80.7292
 52.4296  6564.97  80.859
 52.6276  6653.57  81.5036
 52.8256  6570.29  80.5502
 53.0236  6467.38  80.5611
 53.2216  6359.64  79.8962
 53.4196  6361.41  79.8592
 53.6176  6399.18  80.5706
 53.8156  6353.95  79.9601
 54.0136  6455.5  80.7735
 54.2116  6376.1  79.9325
 54.4096  6449.62  80.451
 54.6076  6317.81  79.9716
 54.8056  6271.12  79.4644
 55.0036  6296.31  79.8873
 55.2016  6278.14  79.365
 55.3996  6275.35  79.399
 55.5976  6276.86  79.598
 55.7956  6207.37  78.9621
 55.9936  6260.23  79.4339
 56.1916  6278.43  79.5755
 56.3896  6270.74  79.5192
 56.5876  6134.21  79.1976
 56.7856  6240.37  79.3556
 56.9836  6145.72  78.5329
 57.1816  6282.67  79.7895
 57.3796  6204.72  79.0936
 57.5776  6351.39  79.9499
 57.7756  6214.24  79.725
 57.9736  6149.95  78.9832
 58.1716  6146.05  79.2004
 58.3696  6169.73  79.1038
 58.5676  6136.31  78.3628
 58.7656  6205.63  79.4866
 58.9636  6274.73  79.9603
 59.1616  6231.3  79.808
 59.3596  6273.58  79.3354
 59.5576  6337.71  79.7977
 59.7556  6348  80.2913
 59.9536  6298.27  79.8729
 60.1516  6281.65  80.6332
 60.1996  0.0000000E+00  0.0000000E+00