File: docs/examples/opeando_xrd/IS17_D/Data/IS17_D/17_Da_f00019.xye
# /beamlines/bl04/projects/cycle2025-II/20250340211-lsimonelli/DATA/IS17_D/17_Da_f00019.xye : mythproc.py merge -s 0.006 -l 0.5 -f /beamlines/bl04/inhouse/ff/FlatField/ff_20Nov2024rod8mm60s_17keV.raw -b True -c true -o xye /beamlines/bl04/projects/cycle2025-II/20250340211-lsimonelli/DATA/IS17_D/17_Da_00019.dat
# IsMon = [6754232, 6750130, 6755487]  IsPos = [-1.5000, -2.4885, -3.4988]
# Wave = 0.4962  CalPath /beamlines/bl04/projects/cycle2025-II/20250340211-lsimonelli/DATA/Align/Si_Pos1_25keV_f00001.cal
# Date = 2025-09-23_22:52:00 Dt = 4.8000  Bin = 0.0060  <imon> = 6753283 +/- 2288 (Min/Max) 6750130 / 6755487
# icurr 249.7964  mocoIn 1.7036E-05  mocoOut 0.8001  i15 7.06606e+06  imon 6.75328e+06  i7 6.0000  iEMpd_timer 4.8000  iEMpd_1 3.6113E-08  iEMpd_2 7.7936E-08  iEMpd_3 1.9038E-08  iEMpd_4 4.7944E-08  iEMhp_timer 4.8000  iEMhp_1 4.8814E-06  iEMhp_2 -2.4851E-08  iEMhp_3 -2.3661E-08  iEMhp_4 -2.1321E-08
#      9776
 1.7416  67785.6  260.413
 1.9396  43691.6  209.341
 2.1376  30740.8  175.59
 2.3356  27396.1  165.416
 2.5336  28507.4  169.331
 2.7316  24342.1  156.608
 2.9296  23037.5  152.511
 3.1276  22433.2  150.049
 3.3256  22068.5  148.524
 3.5236  23957.1  154.698
 3.7216  21922.4  149.029
 3.9196  21879.3  148.122
 4.1176  21414.6  146.319
 4.3156  22693  150.786
 4.5136  25866.1  159.99
 4.7116  26455.2  162.912
 4.9096  25693.6  159.997
 5.1076  25254.9  159.184
 5.3056  25470.7  159.599
 5.5036  25034  158.207
 5.7016  25441.4  159.379
 5.8996  26107.1  160.691
 6.0976  26695  163.879
 6.2956  27388.3  165.352
 6.4936  28052.8  166.549
 6.6916  28373.1  168.475
 6.8896  29450  171.503
 7.0876  30276.1  174.523
 7.2856  29878  172.539
 7.4836  30731.3  174.334
 7.6816  31342.4  176.582
 7.8796  32613.3  180.126
 8.0776  36547  191.671
 8.2756  36595.1  190.398
 8.4736  36405.8  189.739
 8.6716  35857  188.933
 8.8696  36820.6  191.892
 9.0676  35754.7  188.457
 9.2656  33879  184.117
 9.4636  32968  180.076
 9.6616  32433.7  179.368
 9.8596  31095  175.146
 10.0576  29596  171.524
 10.2556  28417.2  168.494
 10.4536  32137.2  178.764
 10.6516  33204.2  181.912
 10.8496  26348.3  161.461
 11.0476  26232.3  161.096
 11.2456  28458.1  168.401
 11.4436  25272.9  157.873
 11.6416  24803.8  156.755
 11.8396  23727.1  153.504
 12.0376  23383.7  152.028
 12.2356  24821.1  157.084
 12.4336  23724.4  153.098
 12.6316  22580.8  149.61
 12.8296  23239.9  151.432
 13.0276  23515  152.504
 13.2256  23304.4  152.17
 13.4236  23352.3  152.102
 13.6216  23243.7  151.759
 13.8196  24144.3  154.449
 14.0176  23037.2  151.152
 14.2156  22577  148.692
 14.4136  21245.2  145.57
 14.6116  20944.9  143.771
 14.8096  20334.2  141.64
 15.0076  19476.4  142.36
 15.2056  19169.6  137.144
 15.4036  18298.9  134.809
 15.6016  18073.8  133.072
 15.7996  17374.9  130.739
 15.9976  16664.6  130.902
 16.1956  15959.2  126.038
 16.3936  15991.3  125.357
 16.5916  15694.6  124.806
 16.7896  15734.1  125.021
 16.9876  15541.8  125.712
 17.1856  15315  123.197
 17.3836  14576.3  120.072
 17.5816  14529.9  120.365
 17.7796  14534  120.325
 17.9776  14524.6  121.052
 18.1756  15602.9  124.142
 18.3736  15442.3  124.04
 18.5716  13916.4  117.497
 18.7696  13988.8  117.378
 18.9676  13536.2  115.273
 19.1656  13546.4  115.87
 19.3636  13356.6  115.262
 19.5616  13421  115.697
 19.7596  13320.5  114.682
 19.9576  14106.5  118.07
 20.1556  13349.6  115.371
 20.3536  13012.4  113.293
 20.5516  12789.2  112.758
 20.7496  12573.3  111.652
 20.9476  12916.6  113.007
 21.1456  13048.6  113.919
 21.3436  12403  111.011
 21.5416  12356.7  110.803
 21.7396  12163.6  109.787
 21.9376  12432.9  110.765
 22.1356  12537.1  111.501
 22.3336  12484.6  111.397
 22.5316  12215.8  110.287
 22.7296  12212.8  109.65
 22.9276  12010.1  109.399
 23.1256  12495.9  111.069
 23.3236  12055.2  109.626
 23.5216  12098.8  109.482
 23.7196  11970.9  109.061
 23.9176  11901.9  108.296
 24.1156  11784.3  108.222
 24.3136  11440.7  107.429
 24.5116  11467.2  107.086
 24.7096  11335.1  106.29
 24.9076  11197.1  105.656
 25.1056  10994.7  104.895
 25.3036  10818.4  103.831
 25.5016  10929.4  104.393
 25.6996  10837  103.54
 25.8976  10930.8  104.41
 26.0956  10830.9  103.956
 26.2936  10604.5  102.524
 26.4916  10656.2  102.645
 26.6896  10364.7  101.526
 26.8876  10158.9  100.368
 27.0856  10332.4  101.239
 27.2836  9966.78  99.3654
 27.4816  10108.5  100.003
 27.6796  9944.67  99.5592
 27.8776  10146.7  100.421
 28.0756  9901.71  99.485
 28.2736  9782.91  98.4781
 28.4716  9561.16  97.3976
 28.6696  9710.48  98.0109
 28.8676  9577.02  97.6711
 29.0656  9431.52  96.9115
 29.2636  9439.44  96.6619
 29.4616  9365.55  96.552
 29.6596  9388.51  96.2403
 29.8576  9064.95  95.2374
 30.0556  9491.17  97.3138
 30.2536  9300.79  96.1421
 30.4516  9244.84  95.4975
 30.6496  9229.02  95.1455
 30.8476  9162.83  95.2409
 31.0456  8966.87  94.1721
 31.2436  9056.61  93.9277
 31.4416  8890.48  93.2526
 31.6396  9095.48  94.3711
 31.8376  8961.21  93.2273
 32.0356  8952.75  93.7392
 32.2336  8742.21  92.0231
 32.4316  8722.18  92.3226
 32.6296  8654.72  91.7345
 32.8276  8676.47  91.6954
 33.0256  8678.85  91.783
 33.2236  8511.6  91.0299
 33.4216  8623.66  91.3295
 33.6196  8483.16  90.873
 33.8176  8565.52  91.4656
 34.0156  8362.18  90.0009
 34.2136  8362.18  90.0353
 34.4116  8309.37  89.8989
 34.6096  8453.61  90.5621
 34.8076  8312.1  90.2089
 35.0056  8311.69  89.8938
 35.2036  8178.86  89.3821
 35.4016  8278.79  89.8491
 35.5996  8084.18  88.8211
 35.7976  8232.55  89.8987
 35.9956  8317.93  90.0123
 36.1936  8113.76  88.7725
 36.3916  8054.52  88.6183
 36.5896  8158.89  90.6193
 36.7876  8078.95  89.1347
 36.9856  7857.54  87.9294
 37.1836  7948.85  87.556
 37.3816  8065.3  88.5506
 37.5796  7929.34  89.5036
 37.7776  7724.69  86.7404
 37.9756  7777.69  86.9181
 38.1736  7992.33  88.3128
 38.3716  7940.1  88.2965
 38.5696  7724.69  87.4722
 38.7676  7589.92  86.2266
 38.9656  7658.53  86.2577
 39.1636  7582.4  86.0473
 39.3616  7701.27  86.6971
 39.5596  7610.63  87.0035
 39.7576  7523.07  85.8885
 39.9556  7792.93  87.0601
 40.1536  7703.66  86.7569
 40.3516  7782.28  87.222
 40.5496  7808.09  87.4059
 40.7476  7797.1  87.5645
 40.9456  7767.78  87.1435
 41.1436  7694.66  86.4573
 41.3416  7695.31  86.7981
 41.5396  7601.02  86.075
 41.7376  7768.58  87.2792
 41.9356  7726.4  86.9056
 42.1336  7682.28  86.7977
 42.3316  7568.92  86.3553
 42.5296  7659.77  86.3887
 42.7276  7665.47  86.662
 42.9256  7522.2  85.7224
 43.1236  7500.89  85.7048
 43.3216  7544.95  85.8115
 43.5196  7457.05  85.2729
 43.7176  7468.36  85.7214
 43.9156  7357.34  85.0016
 44.1136  7406.41  84.8436
 44.3116  7359.5  84.5799
 44.5096  7249.32  84.2551
 44.7076  7383.47  84.9612
 44.9056  7276.71  84.1999
 45.1036  7130.38  82.9867
 45.3016  7135.75  83.5059
 45.4996  7161.85  83.5986
 45.6976  7037.54  83.0382
 45.8956  7148.38  83.5277
 46.0936  7201.98  83.6055
 46.2916  7137.39  83.4469
 46.4896  7082.11  83.1588
 46.6876  7213.31  84.6231
 46.8856  6934.61  82.2469
 47.0836  6910.44  82.3468
 47.2816  6946.89  82.4494
 47.4796  6915.38  82.3603
 47.6776  6792.85  82.5508
 47.8756  6808.7  81.8393
 48.0736  6792.72  82.1871
 48.2716  6696.48  81.4293
 48.4696  6808.5  81.7049
 48.6676  6826.13  82.3879
 48.8656  6817.93  82.0742
 49.0636  6763.76  81.6873
 49.2616  6621.43  80.8677
 49.4596  6725.11  81.0577
 49.6576  6610.99  80.6011
 49.8556  6537.73  80.1673
 50.0536  6572.36  80.8181
 50.2516  6481.53  80.3623
 50.4496  6496.92  80.1495
 50.6476  6560.67  80.2279
 50.8456  6533.28  80.1478
 51.0436  6374.6  79.5981
 51.2416  6426.6  79.6011
 51.4396  6303.25  79.2248
 51.6376  6273.26  78.8654
 51.8356  6321.71  78.8135
 52.0336  6245.38  78.8105
 52.2316  6230.91  79.0558
 52.4296  6275.53  79.0399
 52.6276  6209.7  78.7412
 52.8256  6342.03  79.126
 53.0236  6241.7  79.1513
 53.2216  6073.37  78.093
 53.4196  6088.72  78.1342
 53.6176  6128.33  78.8568
 53.8156  5962.81  77.4616
 54.0136  6093.64  78.4749
 54.2116  6062.09  77.9426
 54.4096  6153.45  78.5836
 54.6076  5976.7  77.7827
 54.8056  5929.56  77.27
 55.0036  5921.13  77.4669
 55.2016  6012.36  77.6745
 55.3996  5988.39  77.5623
 55.5976  5929.67  77.3568
 55.7956  5983.22  77.5253
 55.9936  5942.74  77.3959
 56.1916  5953.72  77.4934
 56.3896  6042.73  78.0624
 56.5876  5874.13  77.4996
 56.7856  5940.52  77.4219
 56.9836  5909.85  77.0129
 57.1816  5953.6  77.6702
 57.3796  5925.45  77.2975
 57.5776  5968.17  77.4993
 57.7756  5818.76  77.1342
 57.9736  5877.66  77.2153
 58.1716  5862.24  77.342
 58.3696  5896.24  77.333
 58.5676  5862.46  76.6079
 58.7656  5849.03  77.1694
 58.9636  5998.72  78.1802
 59.1616  5960.36  78.0367
 59.3596  6032.52  77.7784
 59.5576  6083.05  78.1602
 59.7556  5820.36  76.8644
 59.9536  5956.83  77.6599
 60.1516  6025.7  78.9552
 60.1996  0.0000000E+00  0.0000000E+00