File: docs/examples/opeando_xrd/IS17_D/Data/IS17_D/17_Da_f00117.xye
# /beamlines/bl04/projects/cycle2025-II/20250340211-lsimonelli/DATA/IS17_D/17_Da_f00117.xye : mythproc.py merge -s 0.006 -l 0.5 -f /beamlines/bl04/inhouse/ff/FlatField/ff_20Nov2024rod8mm60s_17keV.raw -b True -c true -o xye /beamlines/bl04/projects/cycle2025-II/20250340211-lsimonelli/DATA/IS17_D/17_Da_00117.dat
# IsMon = [6755273, 6756480, 6758574]  IsPos = [-1.4999, -2.4884, -3.4988]
# Wave = 0.4962  CalPath /beamlines/bl04/projects/cycle2025-II/20250340211-lsimonelli/DATA/Align/Si_Pos1_25keV_f00001.cal
# Date = 2025-09-25_02:10:17 Dt = 4.8000  Bin = 0.0060  <imon> = 6756776 +/- 1364 (Min/Max) 6755273 / 6758574
# icurr 250.1648  mocoIn 1.7061E-05  mocoOut 0.8009  i15 7.07919e+06  imon 6.75678e+06  i7 6.0000  iEMpd_timer 4.8000  iEMpd_1 3.5124E-08  iEMpd_2 7.9749E-08  iEMpd_3 1.7032E-08  iEMpd_4 4.7601E-08  iEMhp_timer 4.8000  iEMhp_1 4.8878E-06  iEMhp_2 -2.4095E-08  iEMhp_3 -2.4665E-08  iEMhp_4 -2.0869E-08
#      9776
 1.7416  70296.3  265.24
 1.9396  46394.2  215.761
 2.1376  33061  182.131
 2.3356  29940.4  172.958
 2.5336  28194.6  168.43
 2.7316  26402.9  163.095
 2.9296  25459.2  160.324
 3.1276  24909.8  158.13
 3.3256  24487.1  156.44
 3.5236  25952.4  160.851
 3.7216  23748.6  155.113
 3.9196  23304.3  152.882
 4.1176  22984.6  151.6
 4.3156  24504.3  156.689
 4.5136  26649.1  162.385
 4.7116  27962.3  167.486
 4.9096  27009.9  164.044
 5.1076  26826.9  164.07
 5.3056  27355  165.398
 5.5036  27007.3  164.243
 5.7016  27261.9  164.982
 5.8996  27916.7  166.163
 6.0976  28736.6  170.037
 6.2956  29290  170.988
 6.4936  30225.6  172.872
 6.6916  30493.3  174.658
 6.8896  31287  176.774
 7.0876  32211.6  180.099
 7.2856  32157.9  178.999
 7.4836  32496.8  179.268
 7.6816  33242.8  181.853
 7.8796  35073.8  186.777
 8.0776  36228.1  190.819
 8.2756  38042.6  194.122
 8.4736  38756.1  195.747
 8.6716  38136.8  194.821
 8.8696  38094.2  195.204
 9.0676  37338.5  192.607
 9.2656  36526.4  191.195
 9.4636  36076.7  188.387
 9.6616  35070  186.535
 9.8596  33847.1  182.729
 10.0576  31983.1  178.299
 10.2556  30847.2  175.539
 10.4536  29704.3  171.862
 10.6516  28871.7  169.627
 10.8496  28059.3  166.627
 11.0476  27559.4  165.166
 11.2456  26838.1  163.522
 11.4436  26932.1  162.975
 11.6416  27476.3  164.982
 11.8396  25277.6  158.446
 12.0376  25171.2  157.743
 12.2356  24621.2  156.419
 12.4336  24866.7  156.74
 12.6316  24263.8  155.09
 12.8296  24528.9  155.572
 13.0276  25281.3  158.119
 13.2256  25325.3  158.638
 13.4236  25104.3  157.698
 13.6216  24840.5  156.897
 13.8196  24939.4  156.971
 14.0176  24703.4  156.515
 14.2156  24117.2  153.677
 14.4136  23087  151.756
 14.6116  22518  149.073
 14.8096  21963.7  147.207
 15.0076  20734.9  146.888
 15.2056  20423.5  141.547
 15.4036  19485.8  139.091
 15.6016  18922.5  136.151
 15.7996  18733.3  135.749
 15.9976  17748  135.088
 16.1956  17305.9  131.262
 16.3936  16913.6  128.936
 16.5916  16667.8  128.628
 16.7896  16725.4  128.91
 16.9876  16723.8  130.398
 17.1856  16349.8  127.283
 17.3836  15844.2  125.194
 17.5816  15301.3  123.528
 17.7796  15128.6  122.759
 17.9776  15036.2  123.173
 18.1756  14985.5  121.667
 18.3736  14768.6  121.296
 18.5716  14669.7  120.637
 18.7696  14685.4  120.267
 18.9676  14373.4  118.792
 19.1656  14196.3  118.616
 19.3636  14341.5  119.428
 19.5616  14264.6  119.276
 19.7596  14227.6  118.528
 19.9576  14738.4  120.684
 20.1556  15171.1  122.983
 20.3536  14128.2  118.055
 20.5516  13701.2  116.69
 20.7496  13462.1  115.621
 20.9476  13397.9  115.1
 21.1456  13471.3  115.74
 21.3436  13253.1  114.75
 21.5416  13148.4  114.296
 21.7396  13047.2  113.701
 21.9376  13042.7  113.443
 22.1356  13062  113.656
 22.3336  12987  113.626
 22.5316  13028.4  113.888
 22.7296  12889.4  112.632
 22.9276  12882.4  113.294
 23.1256  13060.9  113.542
 23.3236  13188.8  114.684
 23.5216  12787.4  112.567
 23.7196  12594.8  111.662
 23.9176  12497.9  110.982
 24.1156  12379.2  110.931
 24.3136  11993.7  109.993
 24.5116  12065.6  109.846
 24.7096  11834.2  108.603
 24.9076  11529.2  107.215
 25.1056  11403.2  107.101
 25.3036  11360.5  106.397
 25.5016  11291.2  106.107
 25.6996  11440.3  106.382
 25.8976  11294.4  106.146
 26.0956  11171.5  105.58
 26.2936  11041.7  104.603
 26.4916  11186.2  105.167
 26.6896  10899.8  104.119
 26.8876  10825.4  103.611
 27.0856  10770.7  103.396
 27.2836  10619.5  102.568
 27.4816  10460  101.728
 27.6796  10365.2  101.641
 27.8776  10411.5  101.726
 28.0756  10367.3  101.796
 28.2736  10253.2  100.817
 28.4716  10032.8  99.7718
 28.6696  10118.4  100.047
 28.8676  9979.19  99.7053
 29.0656  9939.39  99.4845
 29.2636  9814.45  98.6524
 29.4616  9960.54  99.563
 29.6596  9818.68  98.4132
 29.8576  9722.34  98.6211
 30.0556  9756.91  98.6603
 30.2536  9803.79  98.6981
 30.4516  9658.86  97.623
 30.6496  9687.71  97.4931
 30.8476  9588.58  97.4376
 31.0456  9623.9  97.5774
 31.2436  9567.97  96.5556
 31.4416  9254.65  95.1434
 31.6396  9390.43  95.8861
 31.8376  9477.78  95.8746
 32.0356  9339.72  95.7405
 32.2336  9182.65  94.3231
 32.4316  9159.12  94.6018
 32.6296  9249.76  94.9036
 32.8276  9174.51  94.2872
 33.0256  9007.58  93.5064
 33.2236  9063.82  93.9451
 33.4216  9159.18  94.122
 33.6196  9136.28  94.3031
 33.8176  9025.2  93.8912
 34.0156  8954.58  93.1375
 34.2136  8855.81  92.6627
 34.4116  8830.49  92.6801
 34.6096  8863.85  92.7318
 34.8076  8635.97  91.9438
 35.0056  8801.14  92.5034
 35.2036  8710.88  92.2396
 35.4016  8638.59  91.7768
 35.5996  8502.9  91.0882
 35.7976  8488.38  91.2873
 35.9956  8665.2  91.8737
 36.1936  8422.39  90.4496
 36.3916  8429.96  90.6669
 36.5896  8411.67  91.5433
 36.7876  8493.57  91.3837
 36.9856  8262.81  90.1619
 37.1836  8405.93  90.0314
 37.3816  8415.35  90.4467
 37.5796  8200.85  91.0247
 37.7776  8173.79  89.2426
 37.9756  8222.62  89.3914
 38.1736  8300.31  90.0075
 38.3716  8183.5  89.6486
 38.5696  8086.15  89.4947
 38.7676  7967.2  88.3407
 38.9656  8023.82  88.2896
 39.1636  8034.79  88.6157
 39.3616  8039.8  88.5724
 39.5596  7911.09  88.7067
 39.7576  7934.55  88.2106
 39.9556  8074.83  88.6228
 40.1536  8119.29  89.0707
 40.3516  8156.83  89.2861
 40.5496  8126.81  89.391
 40.7476  8090.32  89.186
 40.9456  8195.59  89.5167
 41.1436  8109.82  88.7656
 41.3416  8116.04  89.1361
 41.5396  8005.94  88.3341
 41.7376  8117.02  89.2147
 41.9356  8019.02  88.5331
 42.1336  7989.78  88.5233
 42.3316  7913.69  88.2958
 42.5296  7990.03  88.2341
 42.7276  7838  87.6317
 42.9256  7878.18  87.7207
 43.1236  7806.27  87.4321
 43.3216  7917.19  87.7978
 43.5196  7801.89  87.2203
 43.7176  7862.34  87.9548
 43.9156  7646.46  86.6434
 44.1136  7724.84  86.6382
 44.3116  7729.77  86.6766
 44.5096  7608.93  86.3111
 44.7076  7535.27  85.8215
 44.9056  7542.3  85.7332
 45.1036  7593.92  85.6511
 45.3016  7579.14  86.0708
 45.4996  7382.19  84.8804
 45.6976  7356.83  84.9113
 45.8956  7483.69  85.4618
 46.0936  7477.39  85.4343
 46.2916  7459.66  85.3091
 46.4896  7555.17  85.8894
 46.6876  7383.4  85.6184
 46.8856  7299.3  84.3694
 47.0836  7306.44  84.679
 47.2816  7272.13  84.356
 47.4796  7340.11  84.8565
 47.6776  7137.4  84.6134
 47.8756  7206.83  84.1967
 48.0736  7196.74  84.6007
 48.2716  6997.43  83.238
 48.4696  7197.22  84.0102
 48.6676  7119.32  84.1422
 48.8656  7107.1  83.796
 49.0636  7096.68  83.6754
 49.2616  6927.47  82.709
 49.4596  7023.09  82.8455
 49.6576  6970.1  82.7596
 49.8556  7001.82  82.9654
 50.0536  6913.51  82.8882
 50.2516  6881.66  82.8329
 50.4496  6823.06  82.1288
 50.6476  6893.66  82.2389
 50.8456  6856.01  82.0973
 51.0436  6720.24  81.7188
 51.2416  6819.42  81.9896
 51.4396  6610.77  81.1236
 51.6376  6730.21  81.6726
 51.8356  6693.1  81.0851
 52.0336  6610.67  81.0905
 52.2316  6630.38  81.5592
 52.4296  6569.04  80.8734
 52.6276  6557.2  80.9174
 52.8256  6642.44  80.988
 53.0236  6527.05  80.941
 53.2216  6494.07  80.7653
 53.4196  6188.19  78.765
 53.6176  6475.36  81.0581
 53.8156  6431.13  80.4411
 54.0136  6462.46  80.8092
 54.2116  6444.54  80.3677
 54.4096  6422.48  80.2739
 54.6076  6371.09  80.3091
 54.8056  6334.38  79.8635
 55.0036  6333.54  80.253
 55.2016  6265.73  79.3683
 55.3996  6286.25  79.466
 55.5976  6239.98  79.3577
 55.7956  6370.09  79.9985
 55.9936  6203.75  79.0848
 56.1916  6263.04  79.4806
 56.3896  6308.79  79.758
 56.5876  6237.44  79.8595
 56.7856  6305.71  79.7654
 56.9836  6228  79.0613
 57.1816  6260.59  79.6533
 57.3796  6248.79  79.3717
 57.5776  6238.28  79.2268
 57.7756  6110.83  79.0484
 57.9736  6233.25  79.5182
 58.1716  6170.75  79.3589
 58.3696  6206.95  79.333
 58.5676  6293.25  79.3526
 58.7656  6246.37  79.7376
 58.9636  6340.21  80.3705
 59.1616  6313.93  80.3311
 59.3596  6354.15  79.8252
 59.5576  6279.47  79.4144
 59.7556  6203.71  79.3577
 59.9536  6426.06  80.6631
 60.1516  6341.95  81.0031
 60.1996  0.0000000E+00  0.0000000E+00