File: docs/examples/opeando_xrd/IS17_D/Data/IS17_D/17_Db_f00012.xye
# /beamlines/bl04/projects/cycle2025-II/20250340211-lsimonelli/DATA/IS17_D/17_Db_f00012.xye : mythproc.py merge -s 0.006 -l 0.5 -f /beamlines/bl04/inhouse/ff/FlatField/ff_20Nov2024rod8mm60s_17keV.raw -b True -c true -o xye /beamlines/bl04/projects/cycle2025-II/20250340211-lsimonelli/DATA/IS17_D/17_Db_00012.dat
# IsMon = [6771464, 6773117, 6772520]  IsPos = [-1.5000, -2.4885, -3.4986]
# Wave = 0.4962  CalPath /beamlines/bl04/projects/cycle2025-II/20250340211-lsimonelli/DATA/Align/Si_Pos1_25keV_f00001.cal
# Date = 2025-09-23_21:01:26 Dt = 4.8000  Bin = 0.0060  <imon> = 6772367 +/- 683 (Min/Max) 6771464 / 6773117
# icurr 252.1702  mocoIn 1.7204E-05  mocoOut 0.8074  i15 7.09075e+06  imon 6.77237e+06  i7 6.6667  iEMpd_timer 4.8000  iEMpd_1 3.4190E-08  iEMpd_2 7.8396E-08  iEMpd_3 1.5751E-08  iEMpd_4 4.7116E-08  iEMhp_timer 4.8000  iEMhp_1 4.9275E-06  iEMhp_2 -2.5571E-08  iEMhp_3 -2.3330E-08  iEMhp_4 -2.1393E-08
#      9776
 1.7416  68737.7  262.272
 1.9396  46582.1  216.175
 2.1376  33699.1  183.871
 2.3356  30195.1  173.684
 2.5336  30767.1  175.938
 2.7316  26265.2  162.664
 2.9296  24334.9  156.725
 3.1276  23925.3  154.957
 3.3256  23160.5  152.123
 3.5236  25086.3  158.274
 3.7216  22585.2  151.252
 3.9196  22574.4  150.429
 4.1176  22320.7  149.389
 4.3156  23122  152.209
 4.5136  26293.7  161.295
 4.7116  26774.9  163.883
 4.9096  26155.2  161.415
 5.1076  25720.2  160.641
 5.3056  25830.6  160.609
 5.5036  24849.2  157.559
 5.7016  25545  159.701
 5.8996  25862.4  159.942
 6.0976  26960.3  164.684
 6.2956  27069.8  164.376
 6.4936  27781.7  165.732
 6.6916  28384.7  168.494
 6.8896  29346  171.176
 7.0876  30444.4  174.996
 7.2856  29784.5  172.254
 7.4836  30789.5  174.486
 7.6816  31225.2  176.221
 7.8796  32094  178.651
 8.0776  36224.3  190.813
 8.2756  36397.3  189.891
 8.4736  35836.2  188.235
 8.6716  35281.6  187.384
 8.8696  37093.1  192.647
 9.0676  36283.1  189.855
 9.2656  33981.2  184.421
 9.4636  32796.2  179.673
 9.6616  31999.7  178.182
 9.8596  31503.4  176.247
 10.0576  29586  171.461
 10.2556  28816.7  169.653
 10.4536  33269.1  181.87
 10.6516  33785.1  183.497
 10.8496  26268.5  161.228
 11.0476  26205.4  160.995
 11.2456  29220.6  170.623
 11.4436  25658.8  159.071
 11.6416  24738.3  156.533
 11.8396  23920.5  154.115
 12.0376  22948.9  150.59
 12.2356  24825.3  157.095
 12.4336  23750.1  153.169
 12.6316  22635.2  149.79
 12.8296  23168.2  151.169
 13.0276  23227.7  151.564
 13.2256  23285.3  152.11
 13.4236  23306.4  151.954
 13.6216  23764.8  153.431
 13.8196  26716.9  162.131
 14.0176  22738  150.159
 14.2156  22391.1  148.068
 14.4136  21038.4  144.863
 14.6116  20968.2  143.833
 14.8096  20042.8  140.609
 15.0076  19362.6  142.002
 15.2056  18028.3  132.991
 15.4036  17549.6  132.01
 15.6016  17248.1  129.991
 15.7996  16998.7  129.316
 15.9976  16475.3  130.122
 16.1956  16170.4  126.864
 16.3936  15877  124.905
 16.5916  15734.4  124.973
 16.7896  15438.5  123.851
 16.9876  15538.8  125.664
 17.1856  15420.2  123.601
 17.3836  14763.7  120.854
 17.5816  14474.8  120.134
 17.7796  14581.6  120.508
 17.9776  14514.5  120.997
 18.1756  15850  125.144
 18.3736  15616.5  124.712
 18.5716  13850.9  117.209
 18.7696  13903.3  116.999
 18.9676  13808.1  116.414
 19.1656  13243.8  114.577
 19.3636  13362.5  115.281
 19.5616  13168.9  114.607
 19.7596  13514.5  115.509
 19.9576  13947.9  117.397
 20.1556  12941.6  113.576
 20.3536  12862.3  112.634
 20.5516  12693.6  112.326
 20.7496  12553.4  111.561
 20.9476  13106.7  113.837
 21.1456  12969.2  113.561
 21.3436  12434.2  111.145
 21.5416  12394.5  110.983
 21.7396  12067.7  109.358
 21.9376  12174.9  109.619
 22.1356  12421.4  110.87
 22.3336  11979.6  109.112
 22.5316  11811.3  108.452
 22.7296  11988.2  108.636
 22.9276  11665.9  107.816
 23.1256  12029.6  108.973
 23.3236  12170.3  110.175
 23.5216  12273.1  110.278
 23.7196  12109.4  109.709
 23.9176  11941.1  108.488
 24.1156  11662.8  107.662
 24.3136  11726.1  108.749
 24.5116  11605  107.712
 24.7096  11664.1  107.792
 24.9076  11384.9  106.532
 25.1056  10951.3  104.674
 25.3036  10688.5  103.192
 25.5016  10752.3  103.541
 25.6996  10656.6  102.672
 25.8976  10939.1  104.457
 26.0956  10774.1  103.674
 26.2936  10563.4  102.322
 26.4916  10707.2  102.86
 26.6896  10356.2  101.475
 26.8876  10251.4  100.81
 27.0856  10291.5  101.035
 27.2836  9961.04  99.4843
 27.4816  10071.7  99.8247
 27.6796  9957.96  99.6111
 27.8776  10374.6  101.535
 28.0756  9790.59  98.9165
 28.2736  9868.04  98.9019
 28.4716  9620.08  97.6976
 28.6696  9518.78  97.0304
 28.8676  9485.09  97.2055
 29.0656  9343.6  96.455
 29.2636  9394.89  96.4318
 29.4616  8954.69  94.402
 29.6596  9098.62  94.7364
 29.8576  8938.01  94.559
 30.0556  9099.08  95.2839
 30.2536  9121.13  95.2009
 30.4516  9284.48  95.6996
 30.6496  9243.77  95.2277
 30.8476  9156.03  95.2129
 31.0456  9212.99  95.473
 31.2436  9149.16  94.405
 31.4416  8964.43  93.6354
 31.6396  9409.2  95.9686
 31.8376  9112.89  93.9631
 32.0356  8936.39  93.6197
 32.2336  9074.07  93.7539
 32.4316  8650.59  91.9327
 32.6296  8570.94  91.2819
 32.8276  8684.08  91.7427
 33.0256  8635.93  91.5526
 33.2236  8617.02  91.5868
 33.4216  8537.62  90.8714
 33.6196  8574.43  91.338
 33.8176  8500.09  91.1166
 34.0156  8477.98  90.6292
 34.2136  8477.3  90.6417
 34.4116  8271.94  89.7013
 34.6096  8503.62  90.8325
 34.8076  8180  89.4947
 35.0056  8310.42  89.8694
 35.2036  8418.54  90.6872
 35.4016  8109.99  88.9232
 35.5996  8175.03  89.3108
 35.7976  8111.76  89.23
 35.9956  8274.71  89.7798
 36.1936  8213.99  89.299
 36.3916  8112.59  88.9428
 36.5896  8315.17  91.5028
 36.7876  7728.03  87.1664
 36.9856  7654.05  86.7784
 37.1836  7836.82  86.932
 37.3816  7870.19  87.4717
 37.5796  7840.43  89.0043
 37.7776  7923.05  87.8644
 37.9756  7838.65  87.2734
 38.1736  8166.14  89.2716
 38.3716  7937.2  88.2885
 38.5696  7744.07  87.5772
 38.7676  7708.32  86.8842
 38.9656  7722.53  86.6033
 39.1636  7762.2  87.0595
 39.3616  7746.49  86.9374
 39.5596  7643.84  87.1884
 39.7576  7623.01  86.4662
 39.9556  7690.81  86.4956
 40.1536  7770.15  87.1308
 40.3516  7672.27  86.6695
 40.5496  7725.12  86.9293
 40.7476  7725.12  87.147
 40.9456  7805.2  87.3565
 41.1436  7801.56  87.0606
 41.3416  7680.54  86.7085
 41.5396  7643.91  86.3181
 41.7376  7759.36  87.2239
 41.9356  7585.25  86.1062
 42.1336  7822.99  87.583
 42.3316  7592.41  86.4759
 42.5296  7594.48  86.0127
 42.7276  7705.43  86.8836
 42.9256  7650.31  86.444
 43.1236  7580.72  86.1568
 43.3216  7640.89  86.345
 43.5196  7495.67  85.4796
 43.7176  7531.15  86.0791
 43.9156  7379.97  85.1273
 44.1136  7243.59  83.8968
 44.3116  7341.16  84.4742
 44.5096  7278.29  84.4133
 44.7076  7458.71  85.3804
 44.9056  7481.3  85.3864
 45.1036  7375.99  84.4163
 45.3016  7406.13  85.0833
 45.4996  7262.3  84.1946
 45.6976  7161.58  83.7803
 45.8956  7363.05  84.7583
 46.0936  7432.78  84.926
 46.2916  7347.35  84.655
 46.4896  7387.25  84.9183
 46.6876  7403.69  85.7251
 46.8856  7236.91  84.1316
 47.0836  7270.68  84.4663
 47.2816  7217.76  84.0383
 47.4796  7220.4  84.1633
 47.6776  7126.87  84.5493
 47.8756  7190.7  84.1037
 48.0736  7249.97  84.8907
 48.2716  7081.11  83.7334
 48.4696  7227.72  84.1857
 48.6676  7176.59  84.4802
 48.8656  7210.03  84.4026
 49.0636  7253.68  84.6002
 49.2616  7051.19  83.4474
 49.4596  7151.18  83.6009
 49.6576  7126.25  83.668
 49.8556  7138.69  83.7733
 50.0536  7088.23  83.9256
 50.2516  7060.4  83.866
 50.4496  7072.85  83.621
 50.6476  7050.77  83.1698
 50.8456  7040.23  83.1827
 51.0436  6910.99  82.8667
 51.2416  6754.88  81.608
 51.4396  6823.13  82.4212
 51.6376  6879.12  82.5738
 51.8356  6904.34  82.342
 52.0336  6883.13  82.7468
 52.2316  6765.16  82.3887
 52.4296  6747.22  81.9766
 52.6276  6744.05  82.0609
 52.8256  6851.88  82.282
 53.0236  6779.92  82.4849
 53.2216  6764.2  82.4051
 53.4196  6625.68  81.4931
 53.6176  6777.45  82.9208
 53.8156  6813.33  82.8041
 54.0136  6481.84  80.9345
 54.2116  6668.37  81.7233
 54.4096  6446.01  80.4104
 54.6076  6490.27  81.0237
 54.8056  6326.03  79.7942
 55.0036  6525.23  81.3001
 55.2016  6484.35  80.6168
 55.3996  6245.18  79.1822
 55.5976  6261.59  79.4777
 55.7956  6223.68  79.0499
 55.9936  6372.69  80.1022
 56.1916  6241.29  79.3298
 56.3896  6130.16  78.5906
 56.5876  6092.35  78.9016
 56.7856  6172.39  78.9236
 56.9836  6171.17  78.6896
 57.1816  6244.45  79.5209
 57.3796  6038.79  77.9891
 57.5776  6117.51  78.4186
 57.7756  5932.59  77.8769
 57.9736  5936.08  77.5672
 58.1716  6003.22  78.2675
 58.3696  5778.38  76.5502
 58.5676  5878.64  76.6794
 58.7656  5864.42  77.266
 58.9636  5818.72  76.9887
 59.1616  5741.16  76.6082
 59.3596  5776.2  76.1197
 59.5576  5911.7  77.0632
 59.7556  5796.53  76.7185
 59.9536  5895.45  77.2705
 60.1516  5868.09  77.9277
 60.1996  0.0000000E+00  0.0000000E+00