File: docs/examples/opeando_xrd/IS17_D/Data/IS17_D/17_Da_f00021.xye
# /beamlines/bl04/projects/cycle2025-II/20250340211-lsimonelli/DATA/IS17_D/17_Da_f00021.xye : mythproc.py merge -s 0.006 -l 0.5 -f /beamlines/bl04/inhouse/ff/FlatField/ff_20Nov2024rod8mm60s_17keV.raw -b True -c true -o xye /beamlines/bl04/projects/cycle2025-II/20250340211-lsimonelli/DATA/IS17_D/17_Da_00021.dat
# IsMon = [6769817, 6770835, 6772201]  IsPos = [-1.4999, -2.4885, -3.4986]
# Wave = 0.4962  CalPath /beamlines/bl04/projects/cycle2025-II/20250340211-lsimonelli/DATA/Align/Si_Pos1_25keV_f00001.cal
# Date = 2025-09-23_23:25:05 Dt = 4.8000  Bin = 0.0060  <imon> = 6770951 +/- 977 (Min/Max) 6769817 / 6772201
# icurr 251.2970  mocoIn 1.7143E-05  mocoOut 0.8046  i15 7.08527e+06  imon 6.77095e+06  i7 3.6667  iEMpd_timer 4.8000  iEMpd_1 3.4953E-08  iEMpd_2 7.8018E-08  iEMpd_3 1.7485E-08  iEMpd_4 4.7492E-08  iEMhp_timer 4.8000  iEMhp_1 4.9106E-06  iEMhp_2 -2.4841E-08  iEMhp_3 -2.2462E-08  iEMhp_4 -2.0110E-08
#      9776
 1.7416  68458.2  261.742
 1.9396  44573.6  211.468
 2.1376  31061.2  176.531
 2.3356  27799.1  166.653
 2.5336  28224.8  168.516
 2.7316  24599  157.419
 2.9296  23170.5  152.945
 3.1276  22771.5  151.182
 3.3256  22357.6  149.479
 3.5236  24558  156.616
 3.7216  22274.1  150.222
 3.9196  21912.5  148.243
 4.1176  21791  147.604
 4.3156  23130.7  152.234
 4.5136  25906.4  160.106
 4.7116  26674  163.585
 4.9096  26085.6  161.211
 5.1076  25538  160.078
 5.3056  25828  160.615
 5.5036  25611.5  159.954
 5.7016  25951.1  160.964
 5.8996  26292.4  161.251
 6.0976  27269.4  165.636
 6.2956  27812.8  166.624
 6.4936  28231.3  167.088
 6.6916  28798.6  169.735
 6.8896  29631.8  172.034
 7.0876  30715.7  175.87
 7.2856  30201.1  173.466
 7.4836  30966.6  174.998
 7.6816  31579.9  177.249
 7.8796  32705.7  180.368
 8.0776  36347.2  191.136
 8.2756  36905.3  191.2
 8.4736  36849.3  190.868
 8.6716  36074.9  189.484
 8.8696  36552.7  191.208
 9.0676  35829.1  188.673
 9.2656  33941.3  184.308
 9.4636  33416.1  181.31
 9.6616  32813.9  180.432
 9.8596  31496.4  176.264
 10.0576  29926.1  172.467
 10.2556  28837.7  169.726
 10.4536  30912.3  175.32
 10.6516  31664.2  177.632
 10.8496  26685  162.497
 11.0476  26346  161.44
 11.2456  27827.6  166.517
 11.4436  25541.4  158.712
 11.6416  25158.1  157.868
 11.8396  23728.3  153.516
 12.0376  23588.4  152.686
 12.2356  24279.2  155.36
 12.4336  23746.4  153.168
 12.6316  22767.1  150.236
 12.8296  23452  152.122
 13.0276  23636.5  152.893
 13.2256  23473.4  152.721
 13.4236  23743.6  153.37
 13.6216  23537.9  152.726
 13.8196  24242  154.761
 14.0176  23256.3  151.858
 14.2156  22667.7  148.986
 14.4136  21529.3  146.546
 14.6116  21152.2  144.482
 14.8096  20631.8  142.674
 15.0076  19697.6  143.165
 15.2056  19315.5  137.656
 15.4036  18429.9  135.281
 15.6016  18032.4  132.911
 15.7996  17611.7  131.623
 15.9976  16748.3  131.24
 16.1956  16196.4  126.985
 16.3936  15776.6  124.527
 16.5916  16028.7  126.141
 16.7896  15953.8  125.905
 16.9876  15764.7  126.603
 17.1856  15501.7  123.936
 17.3836  14831.6  121.135
 17.5816  14638.2  120.819
 17.7796  14620.6  120.676
 17.9776  14576.7  121.275
 18.1756  15235.4  122.668
 18.3736  15294.1  123.432
 18.5716  14129.3  118.393
 18.7696  14161.6  118.098
 18.9676  13782.5  116.324
 19.1656  13645  116.286
 19.3636  13466  115.717
 19.5616  13460.1  115.869
 19.7596  13612.1  115.923
 19.9576  14070  117.913
 20.1556  13527.3  116.132
 20.3536  13192.7  114.068
 20.5516  12880  113.149
 20.7496  12734.7  112.453
 20.9476  12839.4  112.674
 21.1456  13071.6  114.014
 21.3436  12615.5  111.961
 21.5416  12538.3  111.616
 21.7396  12155.9  109.75
 21.9376  12348  110.371
 22.1356  12660.7  111.779
 22.3336  12543.6  111.651
 22.5316  12513.4  111.623
 22.7296  12208.2  109.624
 22.9276  12123.1  109.901
 23.1256  12669.8  111.832
 23.3236  12305  110.764
 23.5216  12071.1  109.365
 23.7196  12045.3  109.198
 23.9176  11961.4  108.577
 24.1156  11921.2  108.861
 24.3136  11524.5  107.816
 24.5116  11564  107.536
 24.7096  11374.9  106.473
 24.9076  11191.2  105.636
 25.1056  11044.5  105.127
 25.3036  10729.7  103.399
 25.5016  10906  104.283
 25.6996  10907.5  103.874
 25.8976  10837.4  103.971
 26.0956  10862.4  104.11
 26.2936  10622.4  102.608
 26.4916  10864.8  103.646
 26.6896  10248.2  100.958
 26.8876  10269.5  100.915
 27.0856  10456.1  101.84
 27.2836  10237.1  100.859
 27.4816  10223.5  100.571
 27.6796  9912.83  99.4004
 27.8776  10015.5  99.7742
 28.0756  9941.02  99.6797
 28.2736  10001.9  99.5699
 28.4716  9822.95  98.7274
 28.6696  9666.18  97.7837
 28.8676  9593.55  97.758
 29.0656  9454.46  97.0287
 29.2636  9569.33  97.3249
 29.4616  9340.42  96.415
 29.6596  9396.35  96.2753
 29.8576  9264.33  96.2711
 30.0556  9417.71  96.9377
 30.2536  9356.15  96.4207
 30.4516  9276.53  95.6722
 30.6496  9180.57  94.9069
 30.8476  9188.92  95.3872
 31.0456  9078.02  94.7688
 31.2436  9120.67  94.271
 31.4416  8822.45  92.8875
 31.6396  9200.08  94.9054
 31.8376  9081.9  93.8511
 32.0356  8970.29  93.8289
 32.2336  8799.27  92.3275
 32.4316  8867.03  93.0823
 32.6296  8754.62  92.2608
 32.8276  8727.92  91.9604
 33.0256  8671.52  91.746
 33.2236  8603.2  91.5258
 33.4216  8669.49  91.5767
 33.6196  8682.35  91.929
 33.8176  8723.01  92.3011
 34.0156  8596.65  91.2551
 34.2136  8439.83  90.4568
 34.4116  8450.98  90.6666
 34.6096  8388.29  90.2115
 34.8076  8237.91  89.8021
 35.0056  8237.86  89.4936
 35.2036  8355.88  90.3439
 35.4016  8315.44  90.0431
 35.5996  8167.45  89.2722
 35.7976  8216.73  89.8139
 35.9956  8289.3  89.8619
 36.1936  8188.06  89.179
 36.3916  8018.95  88.4273
 36.5896  8156.49  90.6119
 36.7876  8191.08  89.7435
 36.9856  7893.43  88.1261
 37.1836  7974.68  87.6928
 37.3816  8112.73  88.8104
 37.5796  7935.62  89.5409
 37.7776  7946.63  87.9904
 37.9756  7869.22  87.4409
 38.1736  8038.66  88.5777
 38.3716  7882.39  87.9849
 38.5696  7779.65  87.7778
 38.7676  7711.91  86.9131
 38.9656  7802.12  87.0594
 39.1636  7736.82  86.9207
 39.3616  7761.06  87.0233
 39.5596  7676.41  87.3887
 39.7576  7678.95  86.7774
 39.9556  7754.86  86.8468
 40.1536  7800.55  87.3078
 40.3516  7828.29  87.5494
 40.5496  7759.49  87.1325
 40.7476  7846.66  87.8332
 40.9456  7754.23  87.0715
 41.1436  7735.58  86.6941
 41.3416  7700.9  86.8252
 41.5396  7704.73  86.6637
 41.7376  7763.22  87.2517
 41.9356  7655.47  86.5057
 42.1336  7691.66  86.8548
 42.3316  7618.2  86.6323
 42.5296  7768.49  87.0003
 42.7276  7739.22  87.0777
 42.9256  7705.62  86.7602
 43.1236  7533.5  85.8895
 43.3216  7570.64  85.9582
 43.5196  7463.03  85.3081
 43.7176  7512.09  85.975
 43.9156  7403.99  85.2639
 44.1136  7416.86  84.8939
 44.3116  7418.27  84.9174
 44.5096  7228.39  84.1263
 44.7076  7391.18  84.9992
 44.9056  7373.42  84.7648
 45.1036  7271.8  83.8144
 45.3016  7276.52  84.3349
 45.4996  7122.47  83.3779
 45.6976  7104.96  83.4399
 45.8956  7193.52  83.7893
 46.0936  7183.73  83.7334
 46.2916  7214.16  83.8944
 46.4896  7139.05  83.4908
 46.6876  7090.46  83.9023
 46.8856  7011.42  82.8094
 47.0836  6959.76  82.6464
 47.2816  7050.6  83.058
 47.4796  6950.6  82.5648
 47.6776  6913.38  83.2728
 47.8756  6841.77  82.0405
 48.0736  6992.64  83.3721
 48.2716  6694.52  81.4168
 48.4696  6871.71  82.0794
 48.6676  6836.19  82.4556
 48.8656  6813.12  82.0412
 49.0636  6820.36  82.0365
 49.2616  6677.32  81.2023
 49.4596  6695.43  80.8827
 49.6576  6671.25  80.9634
 49.8556  6686.07  81.074
 50.0536  6626.7  81.1481
 50.2516  6582.14  80.9816
 50.4496  6578.64  80.646
 50.6476  6619.33  80.585
 50.8456  6619.65  80.6679
 51.0436  6417.3  79.8581
 51.2416  6478.87  79.9107
 51.4396  6326.54  79.3594
 51.6376  6407.47  79.6937
 51.8356  6281.32  78.5526
 52.0336  6282.21  79.0487
 52.2316  6306.81  79.5476
 52.4296  6310.66  79.2635
 52.6276  6308.63  79.3684
 52.8256  6364.63  79.277
 53.0236  6233.88  79.1011
 53.2216  6173.64  78.7517
 53.4196  6083.44  78.0964
 53.6176  6033.57  78.2425
 53.8156  6040.87  77.9731
 54.0136  6146.15  78.8171
 54.2116  6121.01  78.3238
 54.4096  6150.14  78.5603
 54.6076  6086.91  78.4977
 54.8056  5951.6  77.4055
 55.0036  6040.36  78.3659
 55.2016  6040.95  77.9294
 55.3996  6062.18  78.037
 55.5976  5982.7  77.6992
 55.7956  6025.74  77.8034
 55.9936  5889.19  77.0508
 56.1916  6075.71  78.2828
 56.3896  6050.31  78.1064
 56.5876  5932.02  77.875
 56.7856  5826.47  76.6759
 56.9836  5922.24  77.1022
 57.1816  5986.47  77.8848
 57.3796  5933.88  77.3176
 57.5776  5958.57  77.4322
 57.7756  5854.49  77.3805
 57.9736  6012.39  78.0961
 58.1716  5947.01  77.9047
 58.3696  5948.45  77.6721
 58.5676  5988.64  77.4115
 58.7656  6020.23  78.2838
 58.9636  6067.84  78.6259
 59.1616  5864.06  77.4108
 59.3596  6039.37  77.8281
 59.5576  6081.93  78.1585
 59.7556  6084.09  78.5921
 59.9536  6055.41  78.3054
 60.1516  5990.8  78.7319
 60.1996  0.0000000E+00  0.0000000E+00