File: docs/examples/opeando_xrd/IS17_D/Data/IS17_D/17_Da_f00053.xye
# /beamlines/bl04/projects/cycle2025-II/20250340211-lsimonelli/DATA/IS17_D/17_Da_f00053.xye : mythproc.py merge -s 0.006 -l 0.5 -f /beamlines/bl04/inhouse/ff/FlatField/ff_20Nov2024rod8mm60s_17keV.raw -b True -c true -o xye /beamlines/bl04/projects/cycle2025-II/20250340211-lsimonelli/DATA/IS17_D/17_Da_00053.dat
# IsMon = [6792076, 6794451, 6795466]  IsPos = [-1.5000, -2.4885, -3.4988]
# Wave = 0.4962  CalPath /beamlines/bl04/projects/cycle2025-II/20250340211-lsimonelli/DATA/Align/Si_Pos1_25keV_f00001.cal
# Date = 2025-09-24_08:18:56 Dt = 4.8000  Bin = 0.0060  <imon> = 6793998 +/- 1421 (Min/Max) 6792076 / 6795466
# icurr 252.7974  mocoIn 1.7247E-05  mocoOut 0.8095  i15 7.11101e+06  imon 6.794e+06  i7 6.6667  iEMpd_timer 4.8000  iEMpd_1 3.4699E-08  iEMpd_2 7.8632E-08  iEMpd_3 1.7105E-08  iEMpd_4 4.9506E-08  iEMhp_timer 4.8000  iEMhp_1 4.9390E-06  iEMhp_2 -2.5850E-08  iEMhp_3 -2.4912E-08  iEMhp_4 -2.1910E-08
#      9776
 1.7416  71077.3  266.718
 1.9396  47131.9  217.474
 2.1376  33779.7  184.105
 2.3356  29911.2  172.878
 2.5336  28050.1  168.003
 2.7316  26458.7  163.262
 2.9296  25303.3  159.831
 3.1276  24729.4  157.552
 3.3256  24415.9  156.206
 3.5236  26128.7  161.552
 3.7216  23950.8  155.773
 3.9196  23416.8  153.249
 4.1176  23367  152.851
 4.3156  24661.8  157.193
 4.5136  26859.8  163.024
 4.7116  28145.3  168.036
 4.9096  27316.6  164.973
 5.1076  27140.8  165.028
 5.3056  27342.8  165.36
 5.5036  26902.8  164.008
 5.7016  27473.5  165.621
 5.8996  28029.4  166.489
 6.0976  28695.9  169.916
 6.2956  29351.8  171.169
 6.4936  30166.5  172.712
 6.6916  30507.7  174.699
 6.8896  31337.5  176.916
 7.0876  32554.9  180.982
 7.2856  32442.6  179.79
 7.4836  32616.1  179.599
 7.6816  33593.8  182.808
 7.8796  34922.3  186.375
 8.0776  36931.4  192.658
 8.2756  38343.9  194.894
 8.4736  39080.2  196.56
 8.6716  38338.9  195.335
 8.8696  38359.8  195.874
 9.0676  37708.4  193.564
 9.2656  36626.9  191.468
 9.4636  35977.1  188.136
 9.6616  35105.2  186.632
 9.8596  33870  182.79
 10.0576  32030.3  178.427
 10.2556  30914.3  175.733
 10.4536  29619.6  171.616
 10.6516  29097.7  170.294
 10.8496  28174.2  166.975
 11.0476  27585.6  165.192
 11.2456  26723.7  163.172
 11.4436  26816.9  162.624
 11.6416  27728.3  165.734
 11.8396  25395.9  158.82
 12.0376  25214.2  157.86
 12.2356  24835.6  157.13
 12.4336  24704  156.22
 12.6316  24381.2  155.465
 12.8296  24564.7  155.689
 13.0276  25312.3  158.217
 13.2256  25390.4  158.837
 13.4236  25244.4  158.147
 13.6216  25094.4  157.697
 13.8196  25272.6  158.014
 14.0176  24501.3  155.869
 14.2156  23993.2  153.289
 14.4136  23057.3  151.656
 14.6116  22577.7  149.268
 14.8096  22132.8  147.773
 15.0076  20778.8  147.051
 15.2056  20430.4  141.568
 15.4036  19435.7  138.919
 15.6016  19107.5  136.812
 15.7996  18640.4  135.412
 15.9976  17912.1  135.734
 16.1956  17311.8  131.288
 16.3936  17137.4  129.789
 16.5916  16709.7  128.799
 16.7896  16704.6  128.837
 16.9876  16608.7  129.95
 17.1856  16294.8  127.065
 17.3836  16058.9  126.042
 17.5816  15497  124.31
 17.7796  15218.5  123.123
 17.9776  15059  123.263
 18.1756  15036.3  121.865
 18.3736  14783.4  121.354
 18.5716  14544.3  120.115
 18.7696  14626.4  120.026
 18.9676  14429.3  119.02
 19.1656  14344.4  119.224
 19.3636  14175.9  118.732
 19.5616  14074  118.48
 19.7596  14191.2  118.372
 19.9576  14626.8  120.227
 20.1556  15168.8  122.977
 20.3536  14239.3  118.516
 20.5516  13836.8  117.28
 20.7496  13460.9  115.527
 20.9476  13419.5  115.193
 21.1456  13415.3  115.496
 21.3436  13321.5  115.041
 21.5416  13202.1  114.534
 21.7396  13062.6  113.771
 21.9376  13108.6  113.734
 22.1356  12997.4  113.521
 22.3336  13160.6  114.36
 22.5316  12994.3  113.741
 22.7296  12927.2  112.806
 22.9276  12857  113.181
 23.1256  12949.8  113.058
 23.3236  13010.5  113.893
 23.5216  13093  113.908
 23.7196  12712.2  112.407
 23.9176  12675.9  111.78
 24.1156  12498.3  111.463
 24.3136  12036.8  110.19
 24.5116  12144.3  110.202
 24.7096  11851.9  108.683
 24.9076  11561.9  107.369
 25.1056  11506.7  107.296
 25.3036  11271.2  105.976
 25.5016  11448.8  106.847
 25.6996  11333.2  105.88
 25.8976  11214.5  105.764
 26.0956  11274.5  106.066
 26.2936  11239.7  105.543
 26.4916  11360.9  105.986
 26.6896  10767.1  103.482
 26.8876  10840.3  103.683
 27.0856  10752.9  103.269
 27.2836  10569  102.321
 27.4816  10620.8  102.501
 27.6796  10468.4  102.141
 27.8776  10435.7  101.848
 28.0756  10385.6  101.886
 28.2736  10338  101.234
 28.4716  10125.5  100.238
 28.6696  10162.6  100.267
 28.8676  10082.7  100.22
 29.0656  9951.69  99.546
 29.2636  9874.88  98.8689
 29.4616  9845.27  98.9834
 29.6596  9889.91  98.7686
 29.8576  9680.63  98.4081
 30.0556  9812.26  98.9439
 30.2536  9904.48  99.2032
 30.4516  9665.37  97.6584
 30.6496  9744.85  97.7831
 30.8476  9652.14  97.7639
 31.0456  9503.68  96.9705
 31.2436  9601.22  96.726
 31.4416  9412.22  95.9504
 31.6396  9489.82  96.3899
 31.8376  9388.91  95.4159
 32.0356  9444.05  96.2758
 32.2336  9221.68  94.5201
 32.4316  9271.38  95.1783
 32.6296  9292.07  95.0529
 32.8276  9223.54  94.5399
 33.0256  9108.73  94.0317
 33.2236  9027.29  93.753
 33.4216  9198.08  94.3204
 33.6196  9098.63  94.1065
 33.8176  9020.56  93.8709
 34.0156  8954.27  93.1313
 34.2136  8979.32  93.3067
 34.4116  8766.62  92.3456
 34.6096  8735.18  92.0604
 34.8076  8647.89  91.9979
 35.0056  8721.48  92.0862
 35.2036  8756.37  92.4869
 35.4016  8715.96  92.1882
 35.5996  8722.18  92.259
 35.7976  8473.04  91.2022
 35.9956  8606.36  91.5657
 36.1936  8407.7  90.3704
 36.3916  8455.85  90.8054
 36.5896  8405.88  91.9783
 36.7876  8438.66  91.0879
 36.9856  8385.26  90.8275
 37.1836  8358.9  89.7779
 37.3816  8375.89  90.2338
 37.5796  8362.77  91.908
 37.7776  8115.3  88.9202
 37.9756  8284.22  89.7252
 38.1736  8372.83  90.3974
 38.3716  8196.16  89.7203
 38.5696  8104.71  89.5965
 38.7676  7901.02  87.9726
 38.9656  8097.86  88.6941
 39.1636  8077.41  88.818
 39.3616  8120.52  89.016
 39.5596  7935.7  88.8382
 39.7576  8026.35  88.7215
 39.9556  8123.84  88.8904
 40.1536  8137.67  89.1695
 40.3516  8185.39  89.4497
 40.5496  8125.74  89.1676
 40.7476  8246.77  90.049
 40.9456  8196.34  89.5117
 41.1436  8256.33  89.5645
 41.3416  8089.59  88.9901
 41.5396  7958.21  88.0724
 41.7376  8209.1  89.7117
 41.9356  8123.57  89.1102
 42.1336  8069.03  88.9625
 42.3316  7953.81  88.5192
 42.5296  7992.08  88.2456
 42.7276  8073.8  88.9404
 42.9256  8003.62  88.4208
 43.1236  7858.95  87.7249
 43.3216  7904.72  87.8374
 43.5196  7856.36  87.5288
 43.7176  7856.63  87.9194
 43.9156  7754.06  87.2528
 44.1136  7840.14  87.2831
 44.3116  7813.19  87.1458
 44.5096  7599.47  86.2552
 44.7076  7708.83  86.8039
 44.9056  7638.58  86.2813
 45.1036  7592.71  85.6466
 45.3016  7583.35  86.0956
 45.4996  7439.87  85.2173
 45.6976  7397  85.1429
 45.8956  7566.27  85.9322
 46.0936  7573.95  85.7344
 46.2916  7508.82  85.5904
 46.4896  7480.7  85.4606
 46.6876  7469.26  86.1197
 46.8856  7315.05  84.4613
 47.0836  7326.4  84.7883
 47.2816  7178.16  83.805
 47.4796  7370.98  85.0299
 47.6776  7086.17  84.3105
 47.8756  7236.9  84.3769
 48.0736  7210.77  84.685
 48.2716  7065.14  83.64
 48.4696  7106.67  83.4593
 48.6676  7119.56  84.1415
 48.8656  7208.49  84.3965
 49.0636  7158.32  84.0491
 49.2616  6957.16  82.8911
 49.4596  7034.03  82.9108
 49.6576  6961.32  82.7095
 49.8556  6992.83  82.9126
 50.0536  6948.01  83.083
 50.2516  6920.43  83.0329
 50.4496  6836.66  82.212
 50.6476  6971.93  82.7041
 50.8456  6997.73  82.939
 51.0436  6769.99  82.0207
 51.2416  6719.41  81.3887
 51.4396  6591.36  81.0059
 51.6376  6725.21  81.6419
 51.8356  6745.84  81.3995
 52.0336  6564.27  80.8078
 52.2316  6567.9  81.1815
 52.4296  6662.66  81.4478
 52.6276  6625.33  81.3305
 52.8256  6696.08  81.3145
 53.0236  6466.79  80.5654
 53.2216  6474.25  80.6217
 53.4196  6338.29  79.7173
 53.6176  6472.65  81.0402
 53.8156  6353.24  79.9638
 54.0136  6465.07  80.8358
 54.2116  6415.23  80.1833
 54.4096  6467.65  80.5504
 54.6076  6377.43  80.348
 54.8056  6342.68  79.9162
 55.0036  6394.4  80.5106
 55.2016  6299.61  79.5061
 55.3996  6359.85  79.9296
 55.5976  6362.91  80.138
 55.7956  6390.62  80.1282
 55.9936  6308.41  79.75
 56.1916  6274.92  79.545
 56.3896  6286.36  79.6137
 56.5876  6228.23  79.798
 56.7856  6263.07  79.499
 56.9836  6200.97  78.8907
 57.1816  6268.75  79.7046
 57.3796  6271.45  79.5165
 57.5776  6246.17  79.2777
 57.7756  6120.87  79.1207
 57.9736  6250.19  79.6242
 58.1716  6236.56  79.7764
 58.3696  6172.95  79.1193
 58.5676  6270.86  79.2134
 58.7656  6217.93  79.5559
 58.9636  6327.19  80.2867
 59.1616  6331.56  80.4445
 59.3596  6329.07  79.6701
 59.5576  6586.31  81.3335
 59.7556  6248.32  79.6446
 59.9536  6430.33  80.6919
 60.1516  6337.43  80.9763
 60.1996  0.0000000E+00  0.0000000E+00