File: docs/examples/opeando_xrd/IS17_D/Data/IS17_D/17_Da_f00065.xye
# /beamlines/bl04/projects/cycle2025-II/20250340211-lsimonelli/DATA/IS17_D/17_Da_f00065.xye : mythproc.py merge -s 0.006 -l 0.5 -f /beamlines/bl04/inhouse/ff/FlatField/ff_20Nov2024rod8mm60s_17keV.raw -b True -c true -o xye /beamlines/bl04/projects/cycle2025-II/20250340211-lsimonelli/DATA/IS17_D/17_Da_00065.dat
# IsMon = [6790497, 6790942, 6789522]  IsPos = [-1.4999, -2.4885, -3.4988]
# Wave = 0.4962  CalPath /beamlines/bl04/projects/cycle2025-II/20250340211-lsimonelli/DATA/Align/Si_Pos1_25keV_f00001.cal
# Date = 2025-09-24_11:40:15 Dt = 4.8000  Bin = 0.0060  <imon> = 6790320 +/- 593 (Min/Max) 6789522 / 6790942
# icurr 252.4348  mocoIn 1.7228E-05  mocoOut 0.8079  i15 7.10649e+06  imon 6.79032e+06  i7 4.6667  iEMpd_timer 4.8000  iEMpd_1 3.2543E-08  iEMpd_2 7.8816E-08  iEMpd_3 1.6480E-08  iEMpd_4 4.7739E-08  iEMhp_timer 4.8000  iEMhp_1 4.9314E-06  iEMhp_2 -2.6341E-08  iEMhp_3 -2.4284E-08  iEMhp_4 -2.1420E-08
#      9776
 1.7416  70122.9  264.88
 1.9396  45694.5  214.096
 2.1376  32359.9  180.166
 2.3356  28953.9  170.063
 2.5336  27835.7  167.334
 2.7316  25381.4  159.895
 2.9296  24248.7  156.452
 3.1276  23542.1  153.711
 3.3256  23434.5  153.027
 3.5236  25125.9  158.409
 3.7216  23068.9  152.876
 3.9196  22843.8  151.359
 4.1176  22601.7  150.326
 4.3156  23951.9  154.916
 4.5136  26567.6  162.134
 4.7116  27516.5  166.145
 4.9096  26840.1  163.527
 5.1076  26395.7  162.741
 5.3056  26887.7  163.989
 5.5036  26425.5  162.548
 5.7016  26885.6  163.838
 5.8996  27342.1  164.439
 6.0976  28428.1  169.12
 6.2956  28714.9  169.306
 6.4936  29474.2  170.722
 6.6916  29840.3  172.777
 6.8896  30762.3  175.281
 7.0876  31691.1  178.642
 7.2856  31632.3  177.53
 7.4836  32119.2  178.224
 7.6816  33000.4  181.189
 7.8796  34440.8  185.102
 8.0776  36827.8  192.402
 8.2756  38229.1  194.61
 8.4736  38761  195.772
 8.6716  37833.1  194.049
 8.8696  37882.6  194.663
 9.0676  37169.7  192.175
 9.2656  36186.9  190.318
 9.4636  35747.3  187.541
 9.6616  34754.3  185.701
 9.8596  33448.2  181.628
 10.0576  31417.2  176.697
 10.2556  30546.9  174.67
 10.4536  31052.4  175.699
 10.6516  31253  176.476
 10.8496  28330.9  167.432
 11.0476  27864.6  166.027
 11.2456  28043.3  167.156
 11.4436  27525  164.759
 11.6416  26586.5  162.288
 11.8396  25065.5  157.779
 12.0376  25056.4  157.369
 12.2356  25079.5  157.9
 12.4336  24793.9  156.508
 12.6316  24032.2  154.345
 12.8296  24473.6  155.4
 13.0276  25117.4  157.613
 13.2256  24797  156.971
 13.4236  24809.6  156.779
 13.6216  24669.6  156.351
 13.8196  24938.7  156.969
 14.0176  24338.2  155.36
 14.2156  23888  152.948
 14.4136  22599.9  150.148
 14.6116  22307.5  148.37
 14.8096  21605.5  146.008
 15.0076  20532.2  146.167
 15.2056  20116.6  140.488
 15.4036  19254.1  138.282
 15.6016  18760.8  135.572
 15.7996  18546.4  135.084
 15.9976  17612.1  134.588
 16.1956  17125.8  130.582
 16.3936  16722.5  128.209
 16.5916  16520.6  128.069
 16.7896  16803.9  129.221
 16.9876  16397.9  129.115
 17.1856  16190.7  126.654
 17.3836  15609.2  124.249
 17.5816  15363.5  123.765
 17.7796  15151.1  122.831
 17.9776  15155.2  123.659
 18.1756  15702.9  124.548
 18.3736  15409.6  123.898
 18.5716  14811.7  121.217
 18.7696  14770.4  120.616
 18.9676  14430.6  119.025
 19.1656  14362.7  119.313
 19.3636  14399.2  119.664
 19.5616  14128.3  118.7
 19.7596  14360.4  119.07
 19.9576  15033.9  121.888
 20.1556  14141.1  118.738
 20.3536  13787.1  116.618
 20.5516  13557  116.092
 20.7496  13395.8  115.341
 20.9476  13341  114.85
 21.1456  13527.6  115.986
 21.3436  13165.6  114.366
 21.5416  12999.2  113.65
 21.7396  12850.5  112.846
 21.9376  12970  113.136
 22.1356  13074.8  113.717
 22.3336  12977.1  113.567
 22.5316  12944.4  113.525
 22.7296  12763.9  112.078
 22.9276  12693.4  112.465
 23.1256  13197.2  114.14
 23.3236  12630  112.216
 23.5216  12719  112.266
 23.7196  12476.3  111.138
 23.9176  12604  111.452
 24.1156  12377.7  110.928
 24.3136  12011.5  110.064
 24.5116  12079.4  109.898
 24.7096  11956.1  109.151
 24.9076  11447.9  106.828
 25.1056  11433  106.954
 25.3036  11238.6  105.824
 25.5016  11309.7  106.194
 25.6996  11258.1  105.532
 25.8976  11217.9  105.781
 26.0956  11304.7  106.212
 26.2936  11114.9  104.954
 26.4916  11083.5  104.692
 26.6896  10829.1  103.78
 26.8876  10742.5  103.215
 27.0856  10870.2  103.839
 27.2836  10573.2  102.338
 27.4816  10492.7  101.881
 27.6796  10337.1  101.503
 27.8776  10508  102.195
 28.0756  10440.9  102.16
 28.2736  10302.7  101.059
 28.4716  10004.8  99.6368
 28.6696  10084.4  99.8775
 28.8676  9827.3  98.9455
 29.0656  9875.03  99.1594
 29.2636  9941.02  99.1998
 29.4616  9597.59  97.7382
 29.6596  9816.5  98.4077
 29.8576  9728.67  98.6596
 30.0556  9755.7  98.67
 30.2536  9897.36  99.1762
 30.4516  9738.65  98.0289
 30.6496  9710.32  97.6103
 30.8476  9550.92  97.2482
 31.0456  9430.64  96.5907
 31.2436  9540.38  96.4161
 31.4416  9287.88  95.3062
 31.6396  9508.68  96.4788
 31.8376  9300.53  94.9685
 32.0356  9273.59  95.3948
 32.2336  9136.87  94.0732
 32.4316  9109.72  94.3425
 32.6296  9146.55  94.3031
 32.8276  9262.36  94.7416
 33.0256  9074.46  93.8453
 33.2236  9010.21  93.6609
 33.4216  9090.63  93.7723
 33.6196  8913.07  93.1426
 33.8176  9019.81  93.8545
 34.0156  8878.01  92.7298
 34.2136  8908.33  92.9276
 34.4116  8746.41  92.2407
 34.6096  8769.61  92.2401
 34.8076  8629.31  91.9122
 35.0056  8618.55  91.5387
 35.2036  8590.74  91.5976
 35.4016  8615.23  91.6559
 35.5996  8591.85  91.5658
 35.7976  8511.89  91.4156
 35.9956  8552.42  91.2725
 36.1936  8586.86  91.3271
 36.3916  8488.93  90.9776
 36.5896  8457.49  92.2641
 36.7876  8432.93  91.0641
 36.9856  8319.11  90.4747
 37.1836  8344.74  89.7073
 37.3816  8457.46  90.6824
 37.5796  8176.06  90.8873
 37.7776  8088.14  88.7724
 37.9756  8287.51  89.7367
 38.1736  8356.27  90.3141
 38.3716  8185.63  89.6636
 38.5696  8131.77  89.7461
 38.7676  7941.89  88.1932
 38.9656  8018.23  88.2501
 39.1636  7995.89  88.3617
 39.3616  8019.62  88.4564
 39.5596  8019.59  89.3149
 39.7576  7938.14  88.2317
 39.9556  7931.73  87.8317
 40.1536  8226.24  89.6536
 40.3516  8126.15  89.1182
 40.5496  8257.36  89.8851
 40.7476  8147.61  89.5023
 40.9456  8172.25  89.3904
 41.1436  8077.98  88.5858
 41.3416  8040.64  88.7205
 41.5396  8043.51  88.5451
 41.7376  8081.48  89.0231
 41.9356  7988.12  88.3651
 42.1336  8033.36  88.7569
 42.3316  7950.15  88.5024
 42.5296  7926.94  87.8861
 42.7276  7961.74  88.3209
 42.9256  8022.58  88.5272
 43.1236  7822.45  87.5231
 43.3216  7891.87  87.7616
 43.5196  7788.42  87.1472
 43.7176  7703.72  87.0651
 43.9156  7724.12  87.0906
 44.1136  7681.69  86.4032
 44.3116  7798.96  87.0736
 44.5096  7621.02  86.3829
 44.7076  7735.49  86.9601
 44.9056  7591.69  86.0154
 45.1036  7603.23  85.7066
 45.3016  7526.72  85.7734
 45.4996  7376.41  84.8533
 45.6976  7293.49  84.5494
 45.8956  7429.38  85.1455
 46.0936  7377.89  84.8549
 46.2916  7470.07  85.3612
 46.4896  7401.12  85.0006
 46.6876  7354.29  85.4378
 46.8856  7300.92  84.4
 47.0836  7273.66  84.4829
 47.2816  7232.36  84.124
 47.4796  7274.67  84.484
 47.6776  7193.71  84.9458
 47.8756  7168.99  83.9732
 48.0736  7241.6  84.8628
 48.2716  7060.23  83.613
 48.4696  7041.44  83.0912
 48.6676  7061.1  83.7914
 48.8656  7089.7  83.6865
 49.0636  7138.88  83.9314
 49.2616  6910.19  82.6104
 49.4596  6941.69  82.3614
 49.6576  6923.57  82.4839
 49.8556  6857.25  82.1033
 50.0536  6939.58  83.0448
 50.2516  6908.09  82.9591
 50.4496  6775.74  81.8443
 50.6476  6879.01  82.15
 50.8456  6965.57  82.7532
 51.0436  6750.93  81.9116
 51.2416  6711.23  81.3464
 51.4396  6629.23  81.2378
 51.6376  6544.58  80.5441
 51.8356  6597.74  80.5019
 52.0336  6525.63  80.5703
 52.2316  6540.86  81.0154
 52.4296  6536.13  80.6636
 52.6276  6574.55  81.0299
 52.8256  6601.43  80.7486
 53.0236  6475.79  80.6146
 53.2216  6382.87  80.0667
 53.4196  6323.12  79.6163
 53.6176  6354.37  80.2883
 53.8156  6280.61  79.4935
 54.0136  6446.69  80.7214
 54.2116  6343.94  79.7352
 54.4096  6421.55  80.2638
 54.6076  6319.48  79.9815
 54.8056  6196.32  78.9893
 55.0036  6290.91  79.9779
 55.2016  6260.28  79.3311
 55.3996  6289.72  79.4887
 55.5976  6294.18  79.7042
 55.7956  6332.73  79.7617
 55.9936  6286.18  79.6015
 56.1916  6280.87  79.5852
 56.3896  6261.34  79.4586
 56.5876  6207.88  79.6643
 56.7856  6210.35  79.1629
 56.9836  6172.27  78.7068
 57.1816  6306.6  79.9413
 57.3796  6210.32  79.1291
 57.5776  6237.67  79.2171
 57.7756  6125.63  79.1528
 57.9736  6215.35  79.4021
 58.1716  6263.93  79.9543
 58.3696  6148.95  78.9633
 58.5676  6302.22  79.407
 58.7656  6243.99  79.73
 58.9636  6243.97  79.7619
 59.1616  6183.74  79.5062
 59.3596  6405.6  80.1653
 59.5576  6402.34  80.2029
 59.7556  6341.02  80.2466
 59.9536  6327.81  80.0594
 60.1516  6352.11  81.0836
 60.1996  0.0000000E+00  0.0000000E+00