File: docs/examples/opeando_xrd/IS17_D/Data/IS17_D/17_Da_f00100.xye
# /beamlines/bl04/projects/cycle2025-II/20250340211-lsimonelli/DATA/IS17_D/17_Da_f00100.xye : mythproc.py merge -s 0.006 -l 0.5 -f /beamlines/bl04/inhouse/ff/FlatField/ff_20Nov2024rod8mm60s_17keV.raw -b True -c true -o xye /beamlines/bl04/projects/cycle2025-II/20250340211-lsimonelli/DATA/IS17_D/17_Da_00100.dat
# IsMon = [6772378, 6773026, 6774607]  IsPos = [-1.4999, -2.4884, -3.4988]
# Wave = 0.4962  CalPath /beamlines/bl04/projects/cycle2025-II/20250340211-lsimonelli/DATA/Align/Si_Pos1_25keV_f00001.cal
# Date = 2025-09-24_21:25:32 Dt = 4.8000  Bin = 0.0060  <imon> = 6773337 +/- 936 (Min/Max) 6772378 / 6774607
# icurr 251.3507  mocoIn 1.7151E-05  mocoOut 0.8046  i15 7.09314e+06  imon 6.77334e+06  i7 3.0000  iEMpd_timer 4.8000  iEMpd_1 3.3165E-08  iEMpd_2 7.7149E-08  iEMpd_3 1.7436E-08  iEMpd_4 4.7854E-08  iEMhp_timer 4.8000  iEMhp_1 4.9106E-06  iEMhp_2 -2.5337E-08  iEMhp_3 -2.4128E-08  iEMhp_4 -2.2603E-08
#      9776
 1.7416  70263.6  265.168
 1.9396  46357.1  215.666
 2.1376  32902.9  181.687
 2.3356  29412.4  171.419
 2.5336  27711.1  166.973
 2.7316  26200.4  162.469
 2.9296  24851.5  158.395
 3.1276  24495  156.797
 3.3256  23999.7  154.868
 3.5236  25887.8  160.652
 3.7216  23502.5  154.308
 3.9196  23179.8  152.471
 4.1176  22893.8  151.297
 4.3156  24025.1  155.153
 4.5136  26687.6  162.502
 4.7116  27654  166.563
 4.9096  26980.6  163.957
 5.1076  26714.4  163.724
 5.3056  27012.8  164.364
 5.5036  26671.4  163.213
 5.7016  27273  165.016
 5.8996  27656.6  165.382
 6.0976  28542.4  169.459
 6.2956  28963.9  170.037
 6.4936  29732.4  171.464
 6.6916  29988.3  173.205
 6.8896  30640.8  174.94
 7.0876  31628.9  178.466
 7.2856  31531.2  177.244
 7.4836  32002.4  177.9
 7.6816  32721.6  180.424
 7.8796  34227.9  184.515
 8.0776  35398.6  188.624
 8.2756  37450.1  192.615
 8.4736  37864.8  193.486
 8.6716  37001.1  191.904
 8.8696  36889.6  192.094
 9.0676  36068.3  189.297
 9.2656  35230.5  187.776
 9.4636  34838.9  185.127
 9.6616  34176.5  184.144
 9.8596  32625.9  179.397
 10.0576  31078.8  175.756
 10.2556  29782.4  172.482
 10.4536  28637.7  168.745
 10.6516  27834.9  166.559
 10.8496  27350.7  164.506
 11.0476  26844.3  163.005
 11.2456  26108.5  161.289
 11.4436  25888.3  159.776
 11.6416  26579.1  162.266
 11.8396  24646.3  156.456
 12.0376  24521  155.694
 12.2356  24024.5  154.513
 12.4336  23891.8  153.634
 12.6316  23584.7  152.911
 12.8296  23846.1  153.394
 13.0276  24544.2  155.802
 13.2256  24652.3  156.514
 13.4236  24491.6  155.767
 13.6216  24267.9  155.076
 13.8196  24303.8  154.958
 14.0176  23946.6  154.096
 14.2156  23348.6  151.212
 14.4136  22405.6  149.499
 14.6116  21989.6  147.313
 14.8096  21534.2  145.761
 15.0076  20197  144.972
 15.2056  20042.6  140.224
 15.4036  18882  136.926
 15.6016  18760.4  135.568
 15.7996  18198.2  133.796
 15.9976  17476.7  134.062
 16.1956  16922.7  129.8
 16.3936  16644.2  127.903
 16.5916  16321.1  127.28
 16.7896  16387.5  127.602
 16.9876  16235.8  128.478
 17.1856  15979.6  125.833
 17.3836  15483.1  123.758
 17.5816  14959.5  122.132
 17.7796  14918.3  121.901
 17.9776  14643  121.549
 18.1756  14649.2  120.288
 18.3736  14519.6  120.27
 18.5716  14362.2  119.365
 18.7696  14284.7  118.618
 18.9676  14029.5  117.356
 19.1656  14097.7  118.2
 19.3636  13869  117.433
 19.5616  13904.3  117.764
 19.7596  13857  116.966
 19.9576  14294.1  118.85
 20.1556  14831.6  121.6
 20.3536  13719  116.319
 20.5516  13469  115.707
 20.7496  13262.6  114.761
 20.9476  13091  113.766
 21.1456  13104.7  114.152
 21.3436  12843.2  112.965
 21.5416  12776.2  112.675
 21.7396  12662.8  112.019
 21.9376  12685.7  111.876
 22.1356  12745.5  112.267
 22.3336  12620.9  112.013
 22.5316  12626.6  112.126
 22.7296  12580  111.276
 22.9276  12557.3  111.856
 23.1256  12616.3  111.592
 23.3236  12705.4  112.554
 23.5216  12640.4  111.916
 23.7196  12391.6  110.753
 23.9176  12303.5  110.114
 24.1156  12303.8  110.593
 24.3136  11784  109.026
 24.5116  11797  108.614
 24.7096  11499.6  107.054
 24.9076  11253.9  105.93
 25.1056  10966.1  105.026
 25.3036  11125.8  105.294
 25.5016  11082.3  105.122
 25.6996  11056.6  104.584
 25.8976  10861.9  104.094
 26.0956  10911.7  104.341
 26.2936  10944.9  104.154
 26.4916  11014.9  104.364
 26.6896  10719.5  103.249
 26.8876  10535.5  102.211
 27.0856  10521.4  102.196
 27.2836  10474.1  101.861
 27.4816  10262.9  100.759
 27.6796  10336.5  101.501
 27.8776  10202.5  100.697
 28.0756  10237  101.154
 28.2736  10072.6  99.9215
 28.4716  9823.86  98.7313
 28.6696  9792.26  98.4194
 28.8676  9870.6  99.1589
 29.0656  9664.02  98.0962
 29.2636  9712.7  98.1354
 29.4616  9583.68  97.6632
 29.6596  9689.92  97.7683
 29.8576  9629.06  98.1484
 30.0556  9519.43  97.4605
 30.2536  9658.49  97.9674
 30.4516  9404.73  96.3304
 30.6496  9537.86  96.7361
 30.8476  9376.19  96.3531
 31.0456  9311.16  95.9743
 31.2436  9350.48  95.4507
 31.4416  9171.26  94.7135
 31.6396  9034.58  94.0513
 31.8376  9067.49  93.7781
 32.0356  8883.54  93.3703
 32.2336  8942.48  93.078
 32.4316  9007.17  93.812
 32.6296  8904.44  93.1181
 32.8276  9017.45  93.4749
 33.0256  8880.3  92.8402
 33.2236  8807.38  92.6061
 33.4216  8893.71  92.7469
 33.6196  8852.44  92.8263
 33.8176  8766.01  92.5327
 34.0156  8858.21  92.6344
 34.2136  8695.75  91.8207
 34.4116  8604.23  91.4751
 34.6096  8508.52  90.8567
 34.8076  8409.54  90.7291
 35.0056  8553.35  91.1928
 35.2036  8526.44  91.2545
 35.4016  8463.66  90.8456
 35.5996  8379.66  90.4247
 35.7976  8382.66  90.717
 35.9956  8399.57  90.4485
 36.1936  8237.39  89.4496
 36.3916  8266.09  89.779
 36.5896  8220.73  90.4984
 36.7876  8334.27  90.5261
 36.9856  8184.49  89.7349
 37.1836  8211.14  88.9839
 37.3816  8173.35  89.1392
 37.5796  8148.09  90.7277
 37.7776  7993.77  88.2414
 37.9756  8001.24  88.1741
 38.1736  8055.4  88.6682
 38.3716  8130.57  89.3583
 38.5696  7988.03  88.9525
 38.7676  7723.26  86.9779
 38.9656  7809.87  87.1028
 39.1636  7741.29  86.9736
 39.3616  7892.7  87.7537
 39.5596  7735.56  87.7163
 39.7576  7758.37  87.2206
 39.9556  7978.96  88.0942
 40.1536  7878.49  87.7382
 40.3516  7997.09  88.4097
 40.5496  7938.57  88.3475
 40.7476  7890.82  88.0849
 40.9456  8017.19  88.5336
 41.1436  7952.25  87.8997
 41.3416  7901.55  87.9509
 41.5396  7898.14  87.7412
 41.7376  7787.04  87.3832
 41.9356  7766.74  87.1294
 42.1336  7920.6  88.138
 42.3316  7826.65  87.8115
 42.5296  7850.71  87.4633
 42.7276  7783.43  87.3253
 42.9256  7704.79  86.7507
 43.1236  7646.68  86.5343
 43.3216  7773.17  86.9962
 43.5196  7608.81  86.1345
 43.7176  7602.98  86.4946
 43.9156  7530.86  85.989
 44.1136  7590  85.8824
 44.3116  7508.73  85.4291
 44.5096  7478.46  85.5673
 44.7076  7572.48  86.0359
 44.9056  7426.57  85.0726
 45.1036  7251.45  83.6969
 45.3016  7332.77  84.6611
 45.4996  7347.28  84.6824
 45.6976  7185.69  83.9189
 45.8956  7359.93  84.7521
 46.0936  7265.4  84.2097
 46.2916  7299.28  84.3821
 46.4896  7351.58  84.7243
 46.6876  7172.09  84.3788
 46.8856  7256.33  84.1353
 47.0836  7188.16  83.9918
 47.2816  7019.86  82.879
 47.4796  7075.47  83.2993
 47.6776  7015.24  83.8813
 47.8756  6976.53  82.8432
 48.0736  7091.96  83.9815
 48.2716  6861.31  82.4264
 48.4696  7015.88  82.9418
 48.6676  7038.2  83.6555
 48.8656  6926.73  82.7239
 49.0636  7018.99  83.2186
 49.2616  6705.09  81.3686
 49.4596  6862.78  81.892
 49.6576  6755.63  81.4767
 49.8556  6805.98  81.7974
 50.0536  6783.1  82.0992
 50.2516  6750.07  82.0269
 50.4496  6676.45  81.2453
 50.6476  6746.81  81.3545
 50.8456  6671.2  80.994
 51.0436  6482.97  80.2657
 51.2416  6550.15  80.3587
 51.4396  6360  79.5675
 51.6376  6545.93  80.5539
 51.8356  6510.76  79.9729
 52.0336  6451.48  80.1101
 52.2316  6349.29  79.8167
 52.4296  6548.69  80.7379
 52.6276  6416.54  80.0386
 52.8256  6451.59  79.8245
 53.0236  6399.35  80.1446
 53.2216  6291.1  79.4925
 53.4196  6138  78.4441
 53.6176  6182.93  79.1996
 53.8156  6357.04  79.9855
 54.0136  6174.72  78.9963
 54.2116  6211.29  78.9006
 54.4096  6309.5  79.5685
 54.6076  6222.89  79.3694
 54.8056  6131.77  78.5715
 55.0036  6140.75  79.0202
 55.2016  6219.91  79.0765
 55.3996  6243.56  79.1977
 55.5976  6111.45  78.5422
 55.7956  6165.76  78.7048
 55.9936  6126.81  78.5896
 56.1916  6168.85  78.8775
 56.3896  6175.99  78.9141
 56.5876  6024.3  78.4832
 56.7856  6035.37  78.0408
 56.9836  6037.73  77.8397
 57.1816  6156.54  78.9881
 57.3796  6112.72  78.5038
 57.5776  6154.78  78.7022
 57.7756  6051.77  78.6723
 57.9736  6111.94  78.7314
 58.1716  6027.52  78.4335
 58.3696  6046.56  78.3065
 58.5676  6105.44  78.1657
 58.7656  6122.03  78.9406
 58.9636  6214.2  79.5682
 59.1616  6096.01  78.9275
 59.3596  6139.05  78.4677
 59.5576  6269.01  79.3514
 59.7556  6243.58  79.6155
 59.9536  6062.3  78.3498
 60.1516  6102.85  79.4647
 60.1996  0.0000000E+00  0.0000000E+00