File: docs/examples/opeando_xrd/IS17_D/Data/IS17_D/17_Da_f00061.xye
# /beamlines/bl04/projects/cycle2025-II/20250340211-lsimonelli/DATA/IS17_D/17_Da_f00061.xye : mythproc.py merge -s 0.006 -l 0.5 -f /beamlines/bl04/inhouse/ff/FlatField/ff_20Nov2024rod8mm60s_17keV.raw -b True -c true -o xye /beamlines/bl04/projects/cycle2025-II/20250340211-lsimonelli/DATA/IS17_D/17_Da_00061.dat
# IsMon = [6760978, 6758195, 6757560]  IsPos = [-1.4999, -2.4884, -3.4988]
# Wave = 0.4962  CalPath /beamlines/bl04/projects/cycle2025-II/20250340211-lsimonelli/DATA/Align/Si_Pos1_25keV_f00001.cal
# Date = 2025-09-24_10:31:33 Dt = 4.8000  Bin = 0.0060  <imon> = 6758911 +/- 1484 (Min/Max) 6757560 / 6760978
# icurr 249.7803  mocoIn 1.7042E-05  mocoOut 0.8002  i15 7.07688e+06  imon 6.75891e+06  i7 5.6667  iEMpd_timer 4.8000  iEMpd_1 3.5511E-08  iEMpd_2 7.8798E-08  iEMpd_3 1.5819E-08  iEMpd_4 4.8196E-08  iEMhp_timer 4.8000  iEMhp_1 4.8806E-06  iEMhp_2 -2.5505E-08  iEMhp_3 -2.4968E-08  iEMhp_4 -2.2809E-08
#      9776
 1.7416  69336  263.353
 1.9396  45737.4  214.163
 2.1376  32416.3  180.298
 2.3356  29000.9  170.177
 2.5336  26842  164.297
 2.7316  25241.7  159.452
 2.9296  24225.1  156.372
 3.1276  23806.2  154.558
 3.3256  23591.6  153.542
 3.5236  25207  158.518
 3.7216  23135.3  153.097
 3.9196  22918.6  151.611
 4.1176  22720.1  150.714
 4.3156  23899.8  154.751
 4.5136  26323  161.389
 4.7116  27216.5  165.238
 4.9096  26783.4  163.354
 5.1076  26430.1  162.84
 5.3056  26626.3  163.19
 5.5036  26546.8  162.837
 5.7016  27148.5  164.637
 5.8996  27653.9  165.378
 6.0976  28491.2  169.299
 6.2956  28869.9  169.768
 6.4936  29518.9  170.857
 6.6916  29913.2  172.99
 6.8896  30726.9  175.179
 7.0876  31824.6  179.016
 7.2856  31686  177.678
 7.4836  32094  178.156
 7.6816  32910  180.937
 7.8796  34376.9  184.939
 8.0776  36114.9  190.545
 8.2756  37937.6  193.884
 8.4736  38549.1  195.247
 8.6716  37794.4  193.968
 8.8696  37592.5  193.911
 9.0676  36785.4  191.171
 9.2656  35869.3  189.463
 9.4636  35801.7  187.675
 9.6616  34618.5  185.341
 9.8596  33225.4  181.023
 10.0576  31772.4  177.692
 10.2556  30685.8  175.064
 10.4536  29724.8  171.903
 10.6516  28890.7  169.666
 10.8496  28091.8  166.727
 11.0476  27239.5  164.203
 11.2456  26844.5  163.545
 11.4436  27313.4  164.119
 11.6416  26269.6  161.315
 11.8396  24844.8  157.077
 12.0376  24860.9  156.779
 12.2356  24319.2  155.456
 12.4336  24220.8  154.684
 12.6316  23901  153.922
 12.8296  24290.3  154.815
 13.0276  24877  156.859
 13.2256  24738.3  156.782
 13.4236  24591  156.085
 13.6216  24506.6  155.827
 13.8196  24579.4  155.832
 14.0176  24264.3  155.122
 14.2156  23571.2  151.933
 14.4136  22488.4  149.767
 14.6116  22135.5  147.8
 14.8096  21552.2  145.825
 15.0076  20416.5  145.75
 15.2056  19908.7  139.771
 15.4036  19073.9  137.633
 15.6016  18793.6  135.702
 15.7996  18226.5  133.92
 15.9976  17492.3  134.126
 16.1956  17066.9  130.35
 16.3936  16601.4  127.738
 16.5916  16468.4  127.856
 16.7896  16620.8  128.508
 16.9876  16446.3  129.298
 17.1856  15909.5  125.549
 17.3836  15384.8  123.36
 17.5816  15370.6  123.786
 17.7796  15092.2  122.598
 17.9776  14931.4  122.74
 18.1756  14982.6  121.649
 18.3736  14785.2  121.364
 18.5716  14729.3  120.884
 18.7696  14693.4  120.303
 18.9676  14189  118.021
 19.1656  14192.9  118.603
 19.3636  14083.7  118.346
 19.5616  14015.5  118.23
 19.7596  14231.4  118.517
 19.9576  14877.4  121.254
 20.1556  14212.1  119.038
 20.3536  13777.2  116.573
 20.5516  13577.7  116.177
 20.7496  13191.8  114.453
 20.9476  13170.3  114.114
 21.1456  13402  115.452
 21.3436  13083.5  114.017
 21.5416  13014.5  113.716
 21.7396  12824.6  112.727
 21.9376  12782.1  112.313
 22.1356  12932.6  113.091
 22.3336  12719.3  112.459
 22.5316  12819.5  112.986
 22.7296  12864.8  112.542
 22.9276  12776.5  112.843
 23.1256  12981.5  113.212
 23.3236  12636.8  112.25
 23.5216  12690.3  112.134
 23.7196  12481.4  111.15
 23.9176  12467.7  110.845
 24.1156  12389.2  110.975
 24.3136  11921.2  109.648
 24.5116  11970.2  109.396
 24.7096  11595.9  107.492
 24.9076  11469.2  106.926
 25.1056  11177.4  106.023
 25.3036  11165.4  105.482
 25.5016  11070.3  105.061
 25.6996  11057.4  104.586
 25.8976  11070.3  105.076
 26.0956  11076.4  105.136
 26.2936  10991  104.374
 26.4916  10933.2  103.98
 26.6896  10769.5  103.492
 26.8876  10586.7  102.462
 27.0856  10586.1  102.52
 27.2836  10466.2  101.826
 27.4816  10391.6  101.39
 27.6796  10467.2  102.142
 27.8776  10269.4  101.024
 28.0756  10285.1  101.397
 28.2736  10262.3  100.857
 28.4716  9967.43  99.4491
 28.6696  10050  99.7086
 28.8676  9867.66  99.1419
 29.0656  9858.25  99.0775
 29.2636  9862.89  98.8945
 29.4616  9696.31  98.246
 29.6596  9706.84  97.864
 29.8576  9600.56  98.0148
 30.0556  9594.28  97.8472
 30.2536  9823.88  98.8144
 30.4516  9535.08  96.9946
 30.6496  9550.23  96.7966
 30.8476  9643.65  97.7152
 31.0456  9345.47  96.1438
 31.2436  9387.34  95.6271
 31.4416  9190.62  94.8032
 31.6396  9341.34  95.6223
 31.8376  9378.78  95.3608
 32.0356  9274.24  95.3952
 32.2336  9199.09  94.3875
 32.4316  9177.69  94.6992
 32.6296  8948.02  93.3454
 32.8276  9078.98  93.7975
 33.0256  8993.05  93.4311
 33.2236  8941.3  93.3021
 33.4216  9127.63  93.9588
 33.6196  8824.78  92.6815
 33.8176  8925.82  93.3739
 34.0156  8803.04  92.3474
 34.2136  8846.85  92.6104
 34.4116  8747.36  92.2464
 34.6096  8663.04  91.6805
 34.8076  8552.01  91.5003
 35.0056  8668.7  91.807
 35.2036  8542.61  91.3436
 35.4016  8540.26  91.2594
 35.5996  8509.33  91.1236
 35.7976  8392.42  90.777
 35.9956  8447.79  90.7184
 36.1936  8360.02  90.108
 36.3916  8400.64  90.5077
 36.5896  8291.55  90.8886
 36.7876  8407.91  90.9349
 36.9856  8188.02  89.7633
 37.1836  8260.42  89.2595
 37.3816  8264.6  89.6506
 37.5796  8139.74  90.6859
 37.7776  8030.86  88.4491
 37.9756  8097.09  88.6951
 38.1736  8150.47  89.188
 38.3716  8126.79  89.3362
 38.5696  8092.36  89.5223
 38.7676  7851.53  87.6823
 38.9656  8068.83  88.5264
 39.1636  7927.91  88.0009
 39.3616  7981.04  88.2433
 39.5596  7950.32  88.9236
 39.7576  7918.81  88.1139
 39.9556  7985.33  88.134
 40.1536  8054.91  88.7151
 40.3516  8112.46  89.038
 40.5496  8045.68  88.9378
 40.7476  8071  89.0841
 40.9456  8074.44  88.8504
 41.1436  8047.14  88.4152
 41.3416  8038.65  88.7141
 41.5396  7972.47  88.1512
 41.7376  7927.5  88.1718
 41.9356  7824.83  87.4572
 42.1336  7920.92  88.1355
 42.3316  7868.79  88.0503
 42.5296  7855.92  87.4863
 42.7276  7835.58  87.616
 42.9256  7824.48  87.4246
 43.1236  7775.67  87.2604
 43.3216  7900.84  87.7036
 43.5196  7699.6  86.644
 43.7176  7778.74  87.4885
 43.9156  7604.04  86.4192
 44.1136  7638.65  86.1671
 44.3116  7740.92  86.7563
 44.5096  7695.71  86.8136
 44.7076  7549.43  85.9138
 44.9056  7539.17  85.7128
 45.1036  7521.26  85.2391
 45.3016  7403.63  85.0585
 45.4996  7427.44  85.1424
 45.6976  7288.31  84.5191
 45.8956  7426.08  85.1235
 46.0936  7387.1  84.8998
 46.2916  7314.21  84.4659
 46.4896  7313.25  84.4945
 46.6876  7319.17  85.239
 46.8856  7254.01  84.117
 47.0836  7207.83  84.095
 47.2816  7110.74  83.4144
 47.4796  7182.13  83.929
 47.6776  7065.6  84.1847
 47.8756  7101.01  83.5787
 48.0736  7092.08  83.9759
 48.2716  6957.39  82.9986
 48.4696  7019.31  82.9706
 48.6676  7102.81  84.0399
 48.8656  7135.38  83.9619
 49.0636  7054.05  83.4197
 49.2616  6869.81  82.3702
 49.4596  6906.02  82.153
 49.6576  6898.66  82.3293
 49.8556  6871.72  82.1902
 50.0536  6842.07  82.458
 50.2516  6861.09  82.698
 50.4496  6797.1  81.9763
 50.6476  6810.03  81.7377
 50.8456  6806.1  81.7974
 51.0436  6559.99  80.7488
 51.2416  6657.26  81.0267
 51.4396  6553.65  80.7856
 51.6376  6471.07  80.094
 51.8356  6574.73  80.3737
 52.0336  6545.38  80.6894
 52.2316  6444.25  80.4102
 52.4296  6536.35  80.6794
 52.6276  6455  80.289
 52.8256  6578.29  80.6061
 53.0236  6331.57  79.7108
 53.2216  6391.04  80.1152
 53.4196  6286.62  79.3864
 53.6176  6378.82  80.4406
 53.8156  6279.27  79.4894
 54.0136  6371.46  80.2505
 54.2116  6270.27  79.2645
 54.4096  6302.32  79.5242
 54.6076  6302.09  79.8731
 54.8056  6117.93  78.4851
 55.0036  6239.34  79.656
 55.2016  6255.71  79.2977
 55.3996  6193.21  78.8796
 55.5976  6287.29  79.6626
 55.7956  6255.59  79.2765
 55.9936  6210.9  79.1252
 56.1916  6239.38  79.3256
 56.3896  6190.3  79.009
 56.5876  6108.66  79.0315
 56.7856  6188.58  79.028
 56.9836  6104.02  78.2679
 57.1816  6243.44  79.5362
 57.3796  6224.74  79.2224
 57.5776  6175.49  78.8376
 57.7756  6073.32  78.8162
 57.9736  6167.08  79.093
 58.1716  6154.49  79.2592
 58.3696  6152.02  78.996
 58.5676  6146.59  78.4303
 58.7656  6034.65  78.3858
 58.9636  6196.65  79.4658
 59.1616  6252.25  79.945
 59.3596  6325.88  79.6682
 59.5576  6344.12  79.8408
 59.7556  6391.78  80.5704
 59.9536  6083.41  78.5014
 60.1516  6166.11  79.8909
 60.1996  0.0000000E+00  0.0000000E+00