File: docs/examples/opeando_xrd/IS17_D/Data/IS17_D/17_Db_f00014.xye
# /beamlines/bl04/projects/cycle2025-II/20250340211-lsimonelli/DATA/IS17_D/17_Db_f00014.xye : mythproc.py merge -s 0.006 -l 0.5 -f /beamlines/bl04/inhouse/ff/FlatField/ff_20Nov2024rod8mm60s_17keV.raw -b True -c true -o xye /beamlines/bl04/projects/cycle2025-II/20250340211-lsimonelli/DATA/IS17_D/17_Db_00014.dat
# IsMon = [6737319, 6734013, 6744097]  IsPos = [-1.5000, -2.4885, -3.4986]
# Wave = 0.4962  CalPath /beamlines/bl04/projects/cycle2025-II/20250340211-lsimonelli/DATA/Align/Si_Pos1_25keV_f00001.cal
# Date = 2025-09-23_21:34:32 Dt = 4.8000  Bin = 0.0060  <imon> = 6738476 +/- 4197 (Min/Max) 6734013 / 6744097
# icurr 249.1887  mocoIn 1.7007E-05  mocoOut 0.7979  i15 7.05963e+06  imon 6.73848e+06  i7 4.6667  iEMpd_timer 4.8000  iEMpd_1 3.4140E-08  iEMpd_2 7.8205E-08  iEMpd_3 1.6655E-08  iEMpd_4 4.8291E-08  iEMhp_timer 4.8000  iEMhp_1 4.8708E-06  iEMhp_2 -2.3919E-08  iEMhp_3 -2.4239E-08  iEMhp_4 -2.1856E-08
#      9776
 1.7416  67590.8  260.079
 1.9396  45931.9  214.672
 2.1376  33288.6  182.752
 2.3356  29748.7  172.398
 2.5336  31192.8  177.155
 2.7316  25702.6  160.943
 2.9296  24059.5  155.865
 3.1276  23472.2  153.49
 3.3256  22828.4  151.065
 3.5236  24771.6  157.3
 3.7216  22251.6  150.131
 3.9196  22354.5  149.704
 4.1176  21817.8  147.69
 4.3156  22789.8  151.097
 4.5136  25957.4  160.273
 4.7116  26467.2  162.938
 4.9096  25628.8  159.789
 5.1076  25327.4  159.408
 5.3056  25425.1  159.338
 5.5036  24653.1  156.921
 5.7016  25219.1  158.676
 5.8996  25608.6  159.155
 6.0976  26549.1  163.415
 6.2956  26687.7  163.21
 6.4936  27444.3  164.732
 6.6916  27950.6  167.204
 6.8896  28944.7  169.987
 7.0876  29767.6  173.044
 7.2856  29376.3  171.064
 7.4836  30230.8  172.891
 7.6816  30779.6  174.962
 7.8796  31477.8  176.941
 8.0776  35696.8  189.419
 8.2756  35647.1  187.898
 8.4736  35500  187.35
 8.6716  34918.8  186.438
 8.8696  36741.6  191.695
 9.0676  35808.2  188.579
 9.2656  33478.8  183.011
 9.4636  32252.9  178.132
 9.6616  31600.7  177.029
 9.8596  31022.4  174.946
 10.0576  29063.4  169.977
 10.2556  28408.1  168.48
 10.4536  33328.6  182.06
 10.6516  35000.1  186.801
 10.8496  26068.4  160.599
 11.0476  25976  160.305
 11.2456  29271.2  170.788
 11.4436  25379.9  158.206
 11.6416  24323.1  155.199
 11.8396  23664  153.291
 12.0376  22685  149.719
 12.2356  24652.9  156.552
 12.4336  23558  152.554
 12.6316  22332  148.788
 12.8296  22967.2  150.504
 13.0276  22898.8  150.491
 13.2256  22789.7  150.48
 13.4236  22890.5  150.592
 13.6216  23323.5  152.008
 13.8196  26430.3  161.246
 14.0176  22514.5  149.418
 14.2156  22105.2  147.121
 14.4136  20721.8  143.772
 14.6116  20475.9  142.134
 14.8096  19593  139.005
 15.0076  19142  141.203
 15.2056  17961.8  132.739
 15.4036  17474.6  131.735
 15.6016  16936.4  128.81
 15.7996  16608.8  127.794
 15.9976  16170.5  128.87
 16.1956  16037.2  126.302
 16.3936  15503.2  123.406
 16.5916  15584.1  124.356
 16.7896  15481.7  123.994
 16.9876  15210.7  124.342
 17.1856  15293.2  123.128
 17.3836  14229  118.672
 17.5816  14457.7  120.089
 17.7796  14528.4  120.314
 17.9776  14444.5  120.699
 18.1756  15973.6  125.634
 18.3736  15529.7  124.378
 18.5716  13775  116.898
 18.7696  13694.5  116.125
 18.9676  13457  114.917
 19.1656  13189.3  114.332
 19.3636  12989.9  113.667
 19.5616  13120.9  114.398
 19.7596  13336.4  114.754
 19.9576  13711.1  116.38
 20.1556  12782.7  112.888
 20.3536  12645.1  111.683
 20.5516  12376.8  110.918
 20.7496  12405.5  110.899
 20.9476  12935.9  113.097
 21.1456  12835.3  112.973
 21.3436  12144.9  109.851
 21.5416  12158.5  109.922
 21.7396  11968.9  108.909
 21.9376  11947.5  108.587
 22.1356  12453.2  111.013
 22.3336  12056.1  109.459
 22.5316  11826.3  108.519
 22.7296  11746.6  107.536
 22.9276  11500.8  107.048
 23.1256  11959.6  108.64
 23.3236  11806.7  108.496
 23.5216  11959.5  108.839
 23.7196  11955.7  108.998
 23.9176  11909.8  108.336
 24.1156  11715.6  107.888
 24.3136  11524.4  107.833
 24.5116  11558.7  107.506
 24.7096  11352.2  106.373
 24.9076  11083.6  105.12
 25.1056  10870  104.305
 25.3036  10521.8  102.397
 25.5016  10507.9  102.362
 25.6996  10598.8  102.393
 25.8976  10840.9  103.988
 26.0956  10649.9  103.064
 26.2936  10356.6  101.322
 26.4916  10730.3  102.986
 26.6896  10403.1  101.699
 26.8876  10179  100.466
 27.0856  10166.3  100.428
 27.2836  9911.8  99.2324
 27.4816  10042.6  99.6825
 27.6796  9804.14  98.8494
 27.8776  10459.4  101.951
 28.0756  9663.17  98.2704
 28.2736  9811.95  98.6149
 28.4716  9600.38  97.5966
 28.6696  9552.97  97.2081
 28.8676  9388.13  96.7073
 29.0656  9187.26  95.6422
 29.2636  9352.14  96.2185
 29.4616  8970.73  94.4872
 29.6596  9052.39  94.4952
 29.8576  8824.89  93.9525
 30.0556  9121.42  95.3892
 30.2536  8933.74  94.2177
 30.4516  9096.42  94.7035
 30.6496  9061.44  94.2665
 30.8476  9033.6  94.5546
 31.0456  9089.98  94.8155
 31.2436  9095.2  94.1225
 31.4416  8866.34  93.132
 31.6396  9254.5  95.1908
 31.8376  9155.79  94.2242
 32.0356  8881.42  93.3582
 32.2336  8839.79  92.5504
 32.4316  8516.89  91.2161
 32.6296  8513.24  90.9813
 32.8276  8519.14  90.8696
 33.0256  8624.26  91.4724
 33.2236  8590.58  91.4492
 33.4216  8473.5  90.5158
 33.6196  8347.35  90.1328
 33.8176  8411.46  90.6388
 34.0156  8278.71  89.5571
 34.2136  8370.46  90.0769
 34.4116  8128.95  88.9271
 34.6096  8250.27  89.4682
 34.8076  8105.7  89.0868
 35.0056  8198.06  89.2735
 35.2036  8388.95  90.5295
 35.4016  8125.83  89.005
 35.5996  8008.61  88.3903
 35.7976  8035.6  88.8006
 35.9956  8179.18  89.25
 36.1936  8112.95  88.7557
 36.3916  7997.84  88.3107
 36.5896  8144.1  90.5596
 36.7876  7814.22  87.6479
 36.9856  7607.85  86.4895
 37.1836  7697.96  86.158
 37.3816  7694.06  86.4789
 37.5796  7665.38  88.0041
 37.7776  7749.14  86.8828
 37.9756  7807.73  87.0903
 38.1736  7959.63  88.1243
 38.3716  7820.31  87.6161
 38.5696  7591.63  86.7004
 38.7676  7691.84  86.8074
 38.9656  7614.39  86.0101
 39.1636  7565.21  85.9629
 39.3616  7612.26  86.204
 39.5596  7483.07  86.2656
 39.7576  7630.04  86.5065
 39.9556  7572.36  85.8246
 40.1536  7668.65  86.5547
 40.3516  7606.03  86.2916
 40.5496  7632.03  86.4002
 40.7476  7680.94  86.8846
 40.9456  7765.99  87.1349
 41.1436  7821.74  87.1721
 41.3416  7617.31  86.3544
 41.5396  7466.32  85.3099
 41.7376  7525.62  85.892
 41.9356  7523.01  85.7498
 42.1336  7749.07  87.1628
 42.3316  7521.27  86.0718
 42.5296  7656.22  86.3687
 42.7276  7577.42  86.1563
 42.9256  7622.25  86.2861
 43.1236  7388.09  85.0521
 43.3216  7542.33  85.7839
 43.5196  7413.91  85.0115
 43.7176  7364.75  85.1143
 43.9156  7182.02  83.9757
 44.1136  7275.1  84.0815
 44.3116  7297.93  84.2172
 44.5096  7249.26  84.2484
 44.7076  7220.79  84.0104
 44.9056  7389.08  84.8451
 45.1036  7400.7  84.5225
 45.3016  7192.74  83.8352
 45.4996  7164.85  83.6092
 45.6976  7131.46  83.5794
 45.8956  7262.53  84.2034
 46.0936  7369.22  84.579
 46.2916  7311.58  84.4592
 46.4896  7408.56  85.0541
 46.6876  7226.24  84.7085
 46.8856  7103.7  83.3499
 47.0836  7137.72  83.6869
 47.2816  7062.85  83.1377
 47.4796  7177.74  83.9114
 47.6776  6981.83  83.6996
 47.8756  7129.51  83.7504
 48.0736  7162.7  84.3779
 48.2716  7060.88  83.6089
 48.4696  7162.61  83.7971
 48.6676  7086.41  83.9475
 48.8656  7216.2  84.4335
 49.0636  7222.15  84.4194
 49.2616  6956.6  82.8865
 49.4596  7061.74  83.0671
 49.6576  7016.42  83.0305
 49.8556  7085.23  83.4577
 50.0536  7017.23  83.5012
 50.2516  7001.56  83.5212
 50.4496  6967.62  83.0034
 50.6476  7109.38  83.5107
 50.8456  6898.21  82.3382
 51.0436  6849.2  82.5005
 51.2416  6806.74  81.9075
 51.4396  6638.58  81.2984
 51.6376  6748.43  81.8002
 51.8356  6780.64  81.6213
 52.0336  6725.59  81.7756
 52.2316  6696.33  81.9566
 52.4296  6641.04  81.3123
 52.6276  6734.13  81.9884
 52.8256  6895.28  82.5258
 53.0236  6723.8  82.158
 53.2216  6666.82  81.8231
 53.4196  6659.38  81.7063
 53.6176  6696.57  82.43
 53.8156  6683.53  82.0143
 54.0136  6359.18  80.1548
 54.2116  6520.45  80.8026
 54.4096  6284.36  79.4096
 54.6076  6265.28  79.61
 54.8056  6232.03  79.1824
 55.0036  6391.83  80.4597
 55.2016  6296.31  79.4286
 55.3996  6121.92  78.396
 55.5976  6289.43  79.6641
 55.7956  6244.7  79.1962
 55.9936  6399.3  80.284
 56.1916  6184.9  78.9729
 56.3896  6053.03  78.0952
 56.5876  6051.33  78.6181
 56.7856  6046.56  78.1092
 56.9836  6050.96  77.896
 57.1816  6179.36  79.0968
 57.3796  5950.39  77.4091
 57.5776  6078.77  78.1622
 57.7756  5969.41  78.118
 57.9736  5962.63  77.739
 58.1716  5881.7  77.4637
 58.3696  5701.04  76.0485
 58.5676  5721.72  75.6717
 58.7656  5698.28  76.1629
 58.9636  5777.52  76.7202
 59.1616  5647.53  75.9767
 59.3596  5705.34  75.6205
 59.5576  5700.03  75.6403
 59.7556  5500.56  74.704
 59.9536  5758.47  76.3366
 60.1516  5770.65  77.2466
 60.1996  0.0000000E+00  0.0000000E+00