File: docs/examples/opeando_xrd/IS17_D/Data/IS17_D/17_Da_f00010.xye
# /beamlines/bl04/projects/cycle2025-II/20250340211-lsimonelli/DATA/IS17_D/17_Da_f00010.xye : mythproc.py merge -s 0.006 -l 0.5 -f /beamlines/bl04/inhouse/ff/FlatField/ff_20Nov2024rod8mm60s_17keV.raw -b True -c true -o xye /beamlines/bl04/projects/cycle2025-II/20250340211-lsimonelli/DATA/IS17_D/17_Da_00010.dat
# IsMon = [6778385, 6779202, 6782365]  IsPos = [-1.5000, -2.4885, -3.4988]
# Wave = 0.4962  CalPath /beamlines/bl04/projects/cycle2025-II/20250340211-lsimonelli/DATA/Align/Si_Pos1_25keV_f00001.cal
# Date = 2025-09-23_20:20:06 Dt = 4.8000  Bin = 0.0060  <imon> = 6779984 +/- 1716 (Min/Max) 6778385 / 6782365
# icurr 252.5861  mocoIn 1.7231E-05  mocoOut 0.8087  i15 7.09056e+06  imon 6.77998e+06  i7 6.0000  iEMpd_timer 4.8000  iEMpd_1 3.2799E-08  iEMpd_2 7.7151E-08  iEMpd_3 1.7493E-08  iEMpd_4 4.8284E-08  iEMhp_timer 4.8000  iEMhp_1 4.9351E-06  iEMhp_2 -2.4220E-08  iEMhp_3 -2.3721E-08  iEMhp_4 -2.1182E-08
#      9776
 1.7416  68360.9  261.565
 1.9396  44130.8  210.424
 2.1376  30726.5  175.583
 2.3356  27313.3  165.196
 2.5336  29265.8  171.601
 2.7316  24287.2  156.431
 2.9296  22709.7  151.423
 3.1276  22324.7  149.693
 3.3256  22155.1  148.807
 3.5236  23864.5  154.39
 3.7216  21796.6  148.602
 3.9196  21880.9  148.136
 4.1176  21208.2  145.62
 4.3156  22593.6  150.455
 4.5136  25881.4  160.031
 4.7116  26252.7  162.288
 4.9096  25640.9  159.832
 5.1076  25088.1  158.665
 5.3056  25411  159.412
 5.5036  25256.4  158.912
 5.7016  25329.8  159.028
 5.8996  25927.4  160.134
 6.0976  26607.8  163.62
 6.2956  27292.8  165.055
 6.4936  27756.5  165.673
 6.6916  28361.6  168.437
 6.8896  29582.3  171.889
 7.0876  30096.4  174.012
 7.2856  29953.1  172.753
 7.4836  30809.4  174.552
 7.6816  31438.5  176.851
 7.8796  32810.4  180.65
 8.0776  37134.6  193.192
 8.2756  37427.2  192.545
 8.4736  37188.2  191.741
 8.6716  36438.3  190.432
 8.8696  37302.9  193.152
 9.0676  36363.4  190.069
 9.2656  34184.1  184.966
 9.4636  33566.6  181.711
 9.6616  32681.2  180.064
 9.8596  31658.4  176.722
 10.0576  30167.1  173.171
 10.2556  29026.4  170.287
 10.4536  33017.6  181.196
 10.6516  34021.6  184.146
 10.8496  26579.9  162.169
 11.0476  26820.9  162.889
 11.2456  29348  171.007
 11.4436  25711  159.234
 11.6416  24923.1  157.129
 11.8396  23966.2  154.285
 12.0376  23442.2  152.212
 12.2356  25074.8  157.888
 12.4336  24162.5  154.504
 12.6316  22927.1  150.759
 12.8296  23603.9  152.614
 13.0276  23803.5  153.431
 13.2256  23578.5  153.066
 13.4236  23544.9  152.732
 13.6216  23434.4  152.389
 13.8196  24288.3  154.908
 14.0176  23354.7  152.174
 14.2156  22893.2  149.731
 14.4136  21327.3  145.853
 14.6116  21288.2  144.945
 14.8096  20287  141.475
 15.0076  19660.8  143.029
 15.2056  19050.7  136.707
 15.4036  18109  134.099
 15.6016  17997.9  132.778
 15.7996  17708.9  131.98
 15.9976  16675.4  130.963
 16.1956  16163.8  126.855
 16.3936  15856.4  124.838
 16.5916  15882.8  125.566
 16.7896  15728.7  125.007
 16.9876  15649.5  126.143
 17.1856  15579.1  124.248
 17.3836  14667.4  120.459
 17.5816  14641.9  120.838
 17.7796  14767  121.287
 17.9776  14670.6  121.664
 18.1756  15999.2  125.701
 18.3736  15582.4  124.59
 18.5716  14117.2  118.342
 18.7696  14202.7  118.279
 18.9676  13649.7  115.763
 19.1656  13647.6  116.298
 19.3636  13643.9  116.481
 19.5616  13501.6  116.045
 19.7596  13381.3  114.944
 19.9576  14139.9  118.207
 20.1556  13379.1  115.492
 20.3536  13132.7  113.807
 20.5516  12801.1  112.809
 20.7496  12586.9  111.715
 20.9476  13021.1  113.467
 21.1456  13209.1  114.609
 21.3436  12654.1  112.132
 21.5416  12478.9  111.357
 21.7396  12224.2  110.059
 21.9376  12418.3  110.702
 22.1356  12751.2  112.446
 22.3336  12488.9  111.405
 22.5316  12367.8  110.972
 22.7296  12150.8  109.366
 22.9276  12212.6  110.311
 23.1256  12750.5  112.179
 23.3236  12189.3  110.243
 23.5216  12273.6  110.28
 23.7196  12002.5  109.217
 23.9176  12020.8  108.848
 24.1156  11891.2  108.722
 24.3136  11794.9  109.08
 24.5116  11690.6  108.128
 24.7096  11672.6  107.861
 24.9076  11260.4  105.965
 25.1056  11119.2  105.485
 25.3036  10901.4  104.228
 25.5016  10823.7  103.885
 25.6996  10792.9  103.33
 25.8976  10957.9  104.551
 26.0956  10877.4  104.18
 26.2936  10789.8  103.413
 26.4916  10797.2  103.328
 26.6896  10380  101.604
 26.8876  10299  101.061
 27.0856  10418.5  101.653
 27.2836  10005.6  99.5586
 27.4816  10249.8  100.696
 27.6796  10038.2  100.025
 27.8776  10326.4  101.306
 28.0756  10091.1  100.431
 28.2736  10023.7  99.6787
 28.4716  9719.01  98.2026
 28.6696  9664.94  97.7811
 28.8676  9710.18  98.3521
 29.0656  9573.5  97.6339
 29.2636  9416.14  96.5491
 29.4616  9507.87  97.2738
 29.6596  9575.93  97.1893
 29.8576  9258.25  96.2383
 30.0556  9579.73  97.7589
 30.2536  9361.06  96.4453
 30.4516  9305.12  95.8172
 30.6496  9304.13  95.5417
 30.8476  9025.4  94.5319
 31.0456  9224.55  95.5352
 31.2436  9109.04  94.2112
 31.4416  8941.57  93.5227
 31.6396  9341.81  95.641
 31.8376  9172.73  94.3238
 32.0356  8837.27  93.1341
 32.2336  8794.28  92.3032
 32.4316  8765.13  92.5455
 32.6296  8741.41  92.1893
 32.8276  8799.63  92.335
 33.0256  8682.02  91.7952
 33.2236  8666.77  91.8615
 33.4216  8777.65  92.1429
 33.6196  8702.09  92.0343
 33.8176  8585.91  91.5779
 34.0156  8539.56  90.9488
 34.2136  8505.74  90.8121
 34.4116  8582.32  91.3705
 34.6096  8494.59  90.7788
 34.8076  8214.33  89.669
 35.0056  8530.77  91.0732
 35.2036  8291.93  90.0008
 35.4016  8387.09  90.4308
 35.5996  8253.02  89.7416
 35.7976  8145.92  89.433
 35.9956  8247.96  89.6367
 36.1936  8258.11  89.5563
 36.3916  8099.68  88.8727
 36.5896  8381.66  91.8507
 36.7876  8238.02  89.9918
 36.9856  8030.76  88.8875
 37.1836  8107.35  88.4166
 37.3816  8121.33  88.8544
 37.5796  7940.77  89.5597
 37.7776  7851.79  87.4658
 37.9756  7850.11  87.3428
 38.1736  8168.82  89.2887
 38.3716  7997.55  88.6231
 38.5696  7852.58  88.1913
 38.7676  7765  87.2131
 38.9656  7772.89  86.8997
 39.1636  7728.31  86.8817
 39.3616  7789.81  87.1873
 39.5596  7604.38  86.9728
 39.7576  7653.59  86.6379
 39.9556  7761.3  86.8847
 40.1536  7849.43  87.5793
 40.3516  7807.32  87.3579
 40.5496  7788.04  87.2944
 40.7476  7945.51  88.3911
 40.9456  7877.72  87.754
 41.1436  7735.37  86.6932
 41.3416  7863.55  87.7378
 41.5396  7757.54  86.954
 41.7376  7873.69  87.8661
 41.9356  7663.54  86.5498
 42.1336  7736.56  87.1094
 42.3316  7766.55  87.472
 42.5296  7659.01  86.3886
 42.7276  7704.5  86.8807
 42.9256  7676.44  86.5934
 43.1236  7617.13  86.3667
 43.3216  7650.47  86.4125
 43.5196  7482.32  85.4138
 43.7176  7598.51  86.4677
 43.9156  7482.29  85.7055
 44.1136  7303.22  84.2426
 44.3116  7455.06  85.1202
 44.5096  7389.81  85.0575
 44.7076  7355.6  84.7923
 44.9056  7367  84.7298
 45.1036  7249.51  83.6848
 45.3016  7265.12  84.268
 45.4996  7282.98  84.31
 45.6976  7024.23  82.9654
 45.8956  7254.81  84.1473
 46.0936  7312.37  84.245
 46.2916  7270.12  84.2226
 46.4896  7273.32  84.2758
 46.6876  7164.61  84.3402
 46.8856  7060.13  82.9914
 47.0836  7043.32  83.1394
 47.2816  6858.41  81.9227
 47.4796  6949.7  82.5634
 47.6776  6911.84  83.265
 47.8756  6938.29  82.6203
 48.0736  6968.57  83.2393
 48.2716  6871.92  82.4835
 48.4696  7023.2  82.9845
 48.6676  6863.34  82.6148
 48.8656  6792.43  81.9182
 49.0636  6916.99  82.6178
 49.2616  6681.99  81.2376
 49.4596  6704.27  80.9426
 49.6576  6770.56  81.5651
 49.8556  6666.22  80.9504
 50.0536  6666.1  81.3873
 50.2516  6628.34  81.2615
 50.4496  6572.68  80.6112
 50.6476  6711.85  81.146
 50.8456  6667.84  80.9691
 51.0436  6579.67  80.8606
 51.2416  6457.06  79.7843
 51.4396  6283.03  79.0855
 51.6376  6323.25  79.1743
 51.8356  6450.78  79.5991
 52.0336  6308.92  79.2187
 52.2316  6352.12  79.8327
 52.4296  6319.65  79.3221
 52.6276  6352.17  79.6375
 52.8256  6402.59  79.5316
 53.0236  6171.68  78.7076
 53.2216  6153.8  78.6059
 53.4196  6187.44  78.769
 53.6176  6168.25  79.114
 53.8156  6261.99  79.3824
 54.0136  6099.38  78.5154
 54.2116  6124.78  78.3432
 54.4096  6212.9  78.9588
 54.6076  6076.08  78.4224
 54.8056  6093.47  78.33
 55.0036  5997.94  77.9763
 55.2016  6074.63  78.0736
 55.3996  6124.77  78.441
 55.5976  6054.93  78.1753
 55.7956  6084.56  78.1856
 55.9936  6004.5  77.8008
 56.1916  6121.98  78.5762
 56.3896  6064.81  78.2005
 56.5876  6034.08  78.5412
 56.7856  5998.53  77.8048
 56.9836  5961.91  77.3564
 57.1816  5998.06  77.9634
 57.3796  6072.83  78.2433
 57.5776  6018.11  77.8194
 57.7756  6029.52  78.5293
 57.9736  5972.28  77.8351
 58.1716  6033.95  78.472
 58.3696  5985.4  77.9113
 58.5676  5956.98  77.2043
 58.7656  5967.93  77.9358
 58.9636  6141.94  79.1035
 59.1616  5948.18  77.9724
 59.3596  6184.81  78.7529
 59.5576  6127.68  78.4454
 59.7556  5966.9  77.8251
 59.9536  6037.62  78.1838
 60.1516  5948.27  78.4454
 60.1996  0.0000000E+00  0.0000000E+00