File: docs/examples/opeando_xrd/IS17_D/Data/IS17_D/17_Da_f00148.xye
# /beamlines/bl04/projects/cycle2025-II/20250340211-lsimonelli/DATA/IS17_D/17_Da_f00148.xye : mythproc.py merge -s 0.006 -l 0.5 -f /beamlines/bl04/inhouse/ff/FlatField/ff_20Nov2024rod8mm60s_17keV.raw -b True -c true -o xye /beamlines/bl04/projects/cycle2025-II/20250340211-lsimonelli/DATA/IS17_D/17_Da_00148.dat
# IsMon = [6757301, 6761173, 6764335]  IsPos = [-1.4999, -2.4883, -3.4989]
# Wave = 0.4962  CalPath /beamlines/bl04/projects/cycle2025-II/20250340211-lsimonelli/DATA/Align/Si_Pos1_25keV_f00001.cal
# Date = 2025-09-25_10:48:35 Dt = 4.8000  Bin = 0.0060  <imon> = 6760936 +/- 2876 (Min/Max) 6757301 / 6764335
# icurr 250.6432  mocoIn 1.7089E-05  mocoOut 0.8021  i15 7.07955e+06  imon 6.76094e+06  i7 5.3333  iEMpd_timer 4.8000  iEMpd_1 3.3768E-08  iEMpd_2 7.8026E-08  iEMpd_3 1.6918E-08  iEMpd_4 4.7514E-08  iEMhp_timer 4.8000  iEMhp_1 4.8952E-06  iEMhp_2 -2.5019E-08  iEMhp_3 -2.4178E-08  iEMhp_4 -2.1204E-08
#      9776
 1.7416  70663.5  265.974
 1.9396  46077.7  215.058
 2.1376  32726.5  181.235
 2.3356  29258.7  171.004
 2.5336  27137.2  165.268
 2.7316  25461.5  160.169
 2.9296  24339.9  156.77
 3.1276  23883.1  154.847
 3.3256  23784.6  154.208
 3.5236  25647.3  159.908
 3.7216  23519.3  154.363
 3.9196  22907.8  151.575
 4.1176  22638.5  150.46
 4.3156  24121.2  155.454
 4.5136  26558.3  162.107
 4.7116  27506.2  166.112
 4.9096  26880.9  163.653
 5.1076  26517.6  163.128
 5.3056  27119  164.679
 5.5036  26947.1  164.055
 5.7016  27656.3  166.171
 5.8996  28000.3  166.41
 6.0976  28853.9  170.39
 6.2956  29133.7  170.528
 6.4936  29723.2  171.441
 6.6916  30108.1  173.551
 6.8896  30898.9  175.674
 7.0876  31737.8  178.773
 7.2856  31643.7  177.563
 7.4836  32153.6  178.405
 7.6816  33053.4  181.334
 7.8796  34567.6  185.41
 8.0776  35850.9  189.808
 8.2756  37756.4  193.376
 8.4736  38445.7  194.946
 8.6716  37920.7  194.258
 8.8696  37731.3  194.273
 9.0676  37083.4  191.952
 9.2656  36089.4  190.049
 9.4636  35623.2  187.196
 9.6616  34857.5  185.958
 9.8596  33439.9  181.637
 10.0576  31863.1  177.966
 10.2556  30728.4  175.21
 10.4536  29833.4  172.246
 10.6516  29268.4  170.791
 10.8496  28345.2  167.477
 11.0476  27572.3  165.204
 11.2456  27139.6  164.438
 11.4436  27492.1  164.658
 11.6416  26744.4  162.766
 11.8396  25029.6  157.675
 12.0376  25274.1  158.061
 12.2356  24434.6  155.825
 12.4336  24366.6  155.152
 12.6316  24190.8  154.868
 12.8296  24348.7  155
 13.0276  25059.7  157.421
 13.2256  25046.5  157.756
 13.4236  24890.8  157.032
 13.6216  24641.7  156.274
 13.8196  24727.4  156.301
 14.0176  24244  154.956
 14.2156  23801.6  152.67
 14.4136  22567.5  150.036
 14.6116  22449.7  148.843
 14.8096  21997.5  147.316
 15.0076  20552.3  146.233
 15.2056  20378.5  141.378
 15.4036  19493.5  139.114
 15.6016  18909.7  136.093
 15.7996  18537.4  135.024
 15.9976  17723.2  135.607
 16.1956  17081.7  130.411
 16.3936  16786.4  128.452
 16.5916  16653.3  128.575
 16.7896  16593.6  128.408
 16.9876  16434.5  129.266
 17.1856  16166.2  126.571
 17.3836  15819.6  125.106
 17.5816  15340.1  123.69
 17.7796  15167.6  122.924
 17.9776  15094.3  123.409
 18.1756  15379.2  123.249
 18.3736  15055.3  122.467
 18.5716  14921.3  121.666
 18.7696  14872.3  121.034
 18.9676  14400.7  118.91
 19.1656  14362.3  119.299
 19.3636  14349.7  119.461
 19.5616  14163.6  118.852
 19.7596  14363  119.095
 19.9576  14782  120.86
 20.1556  14239.4  119.147
 20.3536  14000.3  117.519
 20.5516  13591  116.238
 20.7496  13454.8  115.59
 20.9476  13258.2  114.496
 21.1456  13487.9  115.808
 21.3436  13123.2  114.19
 21.5416  13144.5  114.282
 21.7396  13000.9  113.494
 21.9376  13013.3  113.311
 22.1356  12917.5  113.025
 22.3336  12831  112.935
 22.5316  12924.9  113.428
 22.7296  12804.2  112.256
 22.9276  12624.4  112.136
 23.1256  12999.5  113.263
 23.3236  12855.3  113.213
 23.5216  12753.1  112.412
 23.7196  12577.6  111.573
 23.9176  12542  111.185
 24.1156  12559.7  111.74
 24.3136  11974.6  109.913
 24.5116  11932.4  109.244
 24.7096  11728.5  108.124
 24.9076  11466.9  106.94
 25.1056  11125.7  105.795
 25.3036  11261.8  105.935
 25.5016  11136.6  105.379
 25.6996  11174.9  105.137
 25.8976  11072.9  105.104
 26.0956  11232.2  105.862
 26.2936  11246.8  105.575
 26.4916  11174.8  105.121
 26.6896  10870.6  103.976
 26.8876  10658.2  102.812
 27.0856  10741  103.248
 27.2836  10526.6  102.174
 27.4816  10433.7  101.594
 27.6796  10412.2  101.874
 27.8776  10375.7  101.556
 28.0756  10415.2  102.027
 28.2736  10288.4  100.989
 28.4716  10054.9  99.8876
 28.6696  10113  100.012
 28.8676  9937.36  99.4986
 29.0656  9896.3  99.2762
 29.2636  9849.62  98.8334
 29.4616  9777.67  98.637
 29.6596  9883.55  98.7305
 29.8576  9805.39  99.0339
 30.0556  9713.67  98.443
 30.2536  9839.15  98.8696
 30.4516  9672.52  97.6932
 30.6496  9684.72  97.4778
 30.8476  9637.14  97.6818
 31.0456  9530.04  97.1116
 31.2436  9340.1  95.4052
 31.4416  9295.75  95.3564
 31.6396  9348.14  95.6766
 31.8376  9348.53  95.2208
 32.0356  9467.73  96.4034
 32.2336  9179.39  94.3139
 32.4316  9216.36  94.8541
 32.6296  9135.65  94.3152
 32.8276  9114.22  93.9807
 33.0256  9005.41  93.4927
 33.2236  9046.54  93.8561
 33.4216  9014.99  93.3736
 33.6196  9080.43  94.0112
 33.8176  8983.85  93.6734
 34.0156  8950.24  93.1119
 34.2136  8889.86  92.8446
 34.4116  8725.9  92.2396
 34.6096  8797.97  92.3853
 34.8076  8667.01  92.1066
 35.0056  8699.34  91.9669
 35.2036  8576.75  91.5222
 35.4016  8576.58  91.4471
 35.5996  8612.92  91.675
 35.7976  8520.33  91.4555
 35.9956  8474.57  90.8631
 36.1936  8470.35  90.702
 36.3916  8464.04  90.8032
 36.5896  8383.12  91.3965
 36.7876  8374.89  90.7361
 36.9856  8262.34  90.1536
 37.1836  8327.65  89.6041
 37.3816  8383.62  90.2698
 37.5796  8204.13  91.0402
 37.7776  8197.98  89.3816
 37.9756  8118.41  88.8175
 38.1736  8205.42  89.4941
 38.3716  8174.58  89.6009
 38.5696  8099.59  89.565
 38.7676  7868.63  87.7995
 38.9656  7956.8  87.9253
 39.1636  7936.24  88.0826
 39.3616  8001.35  88.3657
 39.5596  7818.66  88.1915
 39.7576  7855.63  87.7681
 39.9556  8054.59  88.5075
 40.1536  8122.22  89.085
 40.3516  8160.56  89.3107
 40.5496  8054.15  88.9889
 40.7476  8183.89  89.6991
 40.9456  8159.18  89.3167
 41.1436  8084.34  88.6309
 41.3416  8010.21  88.5173
 41.5396  7995.34  88.2143
 41.7376  8054.9  88.876
 41.9356  7864.69  87.679
 42.1336  7937.14  88.2344
 42.3316  7860.05  87.9941
 42.5296  7939.99  87.9538
 42.7276  7969.46  88.3644
 42.9256  7930.27  88.0165
 43.1236  7803.55  87.4173
 43.3216  7869.84  87.5351
 43.5196  7689.44  86.5958
 43.7176  7827.96  87.7636
 43.9156  7655.21  86.6883
 44.1136  7684.55  86.4053
 44.3116  7757.59  86.8243
 44.5096  7553.61  85.9893
 44.7076  7677.28  86.6206
 44.9056  7596.8  86.0396
 45.1036  7545.47  85.379
 45.3016  7439.56  85.2743
 45.4996  7500.78  85.5639
 45.6976  7277.09  84.4472
 45.8956  7456.92  85.3156
 46.0936  7365.51  84.7402
 46.2916  7419.32  85.0772
 46.4896  7447.45  85.2731
 46.6876  7376.27  85.5786
 46.8856  7228.64  83.9723
 47.0836  7202.96  84.0701
 47.2816  7191.52  83.8841
 47.4796  7139.77  83.6975
 47.6776  7099.77  84.3911
 47.8756  7102.02  83.5858
 48.0736  7152.09  84.3367
 48.2716  7005.04  83.3124
 48.4696  7117.87  83.5693
 48.6676  7011.59  83.5011
 48.8656  7087.56  83.6853
 49.0636  7025.21  83.2664
 49.2616  6930.24  82.6146
 49.4596  6859.35  82.0161
 49.6576  6916.68  82.4466
 49.8556  6969.3  82.7734
 50.0536  6938.59  83.037
 50.2516  6864.04  82.7256
 50.4496  6772.22  81.8226
 50.6476  6884  82.1825
 50.8456  6841.14  82.0139
 51.0436  6627.27  81.1462
 51.2416  6679.58  81.1377
 51.4396  6496.24  80.4139
 51.6376  6612.3  80.9568
 51.8356  6595.66  80.4868
 52.0336  6431.96  79.9886
 52.2316  6502.85  80.775
 52.4296  6609.31  81.1173
 52.6276  6565.8  80.9636
 52.8256  6645.53  81.011
 53.0236  6361.17  79.9091
 53.2216  6421.55  80.3213
 53.4196  6339.6  79.732
 53.6176  6308.34  80.0107
 53.8156  6345.37  79.9129
 54.0136  6343.67  80.0632
 54.2116  6332.99  79.6729
 54.4096  6373.86  79.9777
 54.6076  6335.06  80.0802
 54.8056  6212.77  79.094
 55.0036  6236.95  79.6397
 55.2016  6266.77  79.4246
 55.3996  6258.65  79.2884
 55.5976  6197.1  79.0879
 55.7956  6282.56  79.4415
 55.9936  6187.83  78.9818
 56.1916  6320.15  79.8429
 56.3896  6231.25  79.2643
 56.5876  6202.79  79.6349
 56.7856  6209.86  79.1522
 56.9836  6072.59  78.0726
 57.1816  6254.22  79.5131
 57.3796  6261.51  79.4551
 57.5776  6207.21  79.0397
 57.7756  6165.39  79.3974
 57.9736  6166.75  79.0918
 58.1716  6209.18  79.6031
 58.3696  6115.98  78.7533
 58.5676  6233.29  78.9677
 58.7656  6203.71  79.4606
 58.9636  6262.3  79.8687
 59.1616  6205.13  79.6265
 59.3596  6305.48  79.5117
 59.5576  6198.39  78.8907
 59.7556  6130.38  78.878
 59.9536  6367.31  80.284
 60.1516  6329.82  80.9161
 60.1996  6224.44  83.4326