File: docs/examples/opeando_xrd/IS17_D/Data/IS17_D/17_Da_f00096.xye
# /beamlines/bl04/projects/cycle2025-II/20250340211-lsimonelli/DATA/IS17_D/17_Da_f00096.xye : mythproc.py merge -s 0.006 -l 0.5 -f /beamlines/bl04/inhouse/ff/FlatField/ff_20Nov2024rod8mm60s_17keV.raw -b True -c true -o xye /beamlines/bl04/projects/cycle2025-II/20250340211-lsimonelli/DATA/IS17_D/17_Da_00096.dat
# IsMon = [6790500, 6791938, 6791539]  IsPos = [-1.4999, -2.4884, -3.4988]
# Wave = 0.4962  CalPath /beamlines/bl04/projects/cycle2025-II/20250340211-lsimonelli/DATA/Align/Si_Pos1_25keV_f00001.cal
# Date = 2025-09-24_20:19:11 Dt = 4.8000  Bin = 0.0060  <imon> = 6791326 +/- 606 (Min/Max) 6790500 / 6791938
# icurr 252.7250  mocoIn 1.7241E-05  mocoOut 0.8090  i15 7.10783e+06  imon 6.79133e+06  i7 3.6667  iEMpd_timer 4.8000  iEMpd_1 3.5513E-08  iEMpd_2 7.9090E-08  iEMpd_3 1.8656E-08  iEMpd_4 4.7525E-08  iEMhp_timer 4.8000  iEMhp_1 4.9362E-06  iEMhp_2 -2.5784E-08  iEMhp_3 -2.4684E-08  iEMhp_4 -2.1150E-08
#      9776
 1.7416  70879.9  266.325
 1.9396  46139.6  215.147
 2.1376  32943.6  181.797
 2.3356  29529.9  171.759
 2.5336  27367.5  165.933
 2.7316  25708.8  160.928
 2.9296  24829.9  158.321
 3.1276  24286.5  156.131
 3.3256  24029.8  154.961
 3.5236  25763.3  160.253
 3.7216  23575.4  154.547
 3.9196  22990.1  151.843
 4.1176  23022  151.718
 4.3156  24278.5  155.969
 4.5136  26681  162.479
 4.7116  27777  166.928
 4.9096  26999.1  164.012
 5.1076  26804.1  163.999
 5.3056  27149.3  164.779
 5.5036  27040.3  164.337
 5.7016  27520.3  165.762
 5.8996  28027.4  166.484
 6.0976  28704.8  169.939
 6.2956  29072.1  170.354
 6.4936  29782.4  171.609
 6.6916  30069  173.438
 6.8896  30617.9  174.869
 7.0876  31865.6  179.131
 7.2856  31613.2  177.477
 7.4836  32039.3  178.004
 7.6816  32752  180.506
 7.8796  34294.7  184.699
 8.0776  35658  189.316
 8.2756  37497.9  192.739
 8.4736  38033.1  193.917
 8.6716  37380.3  192.88
 8.8696  37298.3  193.161
 9.0676  36280.5  189.864
 9.2656  35454.3  188.37
 9.4636  34977.3  185.507
 9.6616  34119.4  183.998
 9.8596  32931.3  180.231
 10.0576  31146.5  175.937
 10.2556  29943.9  172.943
 10.4536  29392.6  170.949
 10.6516  28451.3  168.382
 10.8496  27467  164.86
 11.0476  26888.3  163.141
 11.2456  26233.2  161.669
 11.4436  26500.2  161.658
 11.6416  26638.1  162.444
 11.8396  24719.3  156.686
 12.0376  24570.9  155.854
 12.2356  24043  154.572
 12.4336  24102.1  154.31
 12.6316  23817  153.662
 12.8296  24001.7  153.895
 13.0276  24704.3  156.307
 13.2256  24612.5  156.38
 13.4236  24527.2  155.882
 13.6216  24502.2  155.82
 13.8196  24448.3  155.416
 14.0176  24166.9  154.805
 14.2156  23495  151.684
 14.4136  22524.7  149.895
 14.6116  22204  148.029
 14.8096  21591.2  145.957
 15.0076  20323.4  145.414
 15.2056  20107  140.447
 15.4036  19013  137.405
 15.6016  18673.8  135.255
 15.7996  18165.3  133.68
 15.9976  17538.7  134.292
 16.1956  16993.6  130.077
 16.3936  16556.5  127.571
 16.5916  16414.7  127.655
 16.7896  16292.4  127.238
 16.9876  16239.7  128.492
 17.1856  16003.4  125.918
 17.3836  15581.2  124.15
 17.5816  15262.6  123.362
 17.7796  15014.1  122.282
 17.9776  14713.5  121.845
 18.1756  14914.7  121.374
 18.3736  14775.7  121.323
 18.5716  14551.8  120.149
 18.7696  14652.1  120.134
 18.9676  14314.6  118.548
 19.1656  14101.1  118.22
 19.3636  14011.7  118.046
 19.5616  13990  118.123
 19.7596  14027.1  117.676
 19.9576  14284.3  118.81
 20.1556  14673.4  120.953
 20.3536  13828.5  116.792
 20.5516  13590.6  116.237
 20.7496  13246.2  114.696
 20.9476  13130.6  113.942
 21.1456  13281.3  114.921
 21.3436  12976.5  113.55
 21.5416  12915.6  113.288
 21.7396  12816.8  112.697
 21.9376  12837.5  112.555
 22.1356  12896.4  112.933
 22.3336  12851.4  113.03
 22.5316  12859.7  113.158
 22.7296  12676  111.696
 22.9276  12647.3  112.26
 23.1256  12778  112.31
 23.3236  12659.4  112.35
 23.5216  12608.3  111.775
 23.7196  12438.7  110.968
 23.9176  12320.2  110.199
 24.1156  12284.9  110.511
 24.3136  11797.6  109.084
 24.5116  11993  109.504
 24.7096  11565  107.354
 24.9076  11286.1  106.075
 25.1056  11196.6  106.12
 25.3036  11056.4  104.961
 25.5016  11064.9  105.034
 25.6996  11228.7  105.388
 25.8976  10951.2  104.515
 26.0956  10989.9  104.719
 26.2936  10996.2  104.396
 26.4916  11031.7  104.441
 26.6896  10734.6  103.324
 26.8876  10611.9  102.584
 27.0856  10654.5  102.836
 27.2836  10439.4  101.69
 27.4816  10273.4  100.814
 27.6796  10198  100.817
 27.8776  10203.6  100.705
 28.0756  10116.5  100.558
 28.2736  10111.7  100.117
 28.4716  9970.94  99.46
 28.6696  9983.43  99.3722
 28.8676  9824.12  98.9255
 29.0656  9719.98  98.3824
 29.2636  9754.96  98.3524
 29.4616  9687.79  98.1928
 29.6596  9755.36  98.0982
 29.8576  9487.24  97.4234
 30.0556  9579.39  97.7631
 30.2536  9729.96  98.3301
 30.4516  9451.81  96.5747
 30.6496  9478.57  96.4347
 30.8476  9454.38  96.7551
 31.0456  9372.31  96.2963
 31.2436  9342  95.4066
 31.4416  9202.12  94.8625
 31.6396  9373.01  95.7918
 31.8376  9325.06  95.087
 32.0356  9062.9  94.3072
 32.2336  8974.85  93.2413
 32.4316  9059.13  94.0829
 32.6296  8990.33  93.562
 32.8276  9007.07  93.4282
 33.0256  8920.87  93.0536
 33.2236  8882.97  93.0019
 33.4216  9018  93.3979
 33.6196  8943.66  93.302
 33.8176  8883.55  93.1523
 34.0156  8864.69  92.6659
 34.2136  8647.32  91.5628
 34.4116  8630.21  91.618
 34.6096  8652.16  91.6176
 34.8076  8555.02  91.5071
 35.0056  8580.3  91.334
 35.2036  8595.62  91.6195
 35.4016  8531.25  91.208
 35.5996  8341.42  90.2208
 35.7976  8338.31  90.4776
 35.9956  8519.71  91.1003
 36.1936  8263.2  89.5898
 36.3916  8374.04  90.3658
 36.5896  8315.06  91.0178
 36.7876  8307.54  90.3793
 36.9856  8162.48  89.613
 37.1836  8176.39  88.7957
 37.3816  8234.09  89.4748
 37.5796  8094.02  90.4284
 37.7776  8066.33  88.6567
 37.9756  8082.68  88.6242
 38.1736  8177.82  89.3401
 38.3716  8027.7  88.7934
 38.5696  8033.48  89.2044
 38.7676  7814.99  87.4885
 38.9656  8055.86  88.4604
 39.1636  7855.6  87.6177
 39.3616  7974.28  88.2068
 39.5596  7827.03  88.228
 39.7576  7872.34  87.8633
 39.9556  7960.86  87.9988
 40.1536  8048.96  88.6874
 40.3516  8059.99  88.7567
 40.5496  7985.18  88.5998
 40.7476  8076.12  89.1113
 40.9456  8089.58  88.9312
 41.1436  8066.56  88.5284
 41.3416  7946.96  88.2031
 41.5396  7926.65  87.8988
 41.7376  7890.77  87.9636
 41.9356  7759.73  87.0908
 42.1336  7809.44  87.5167
 42.3316  7829.29  87.8263
 42.5296  7837.21  87.3874
 42.7276  7865.75  87.7872
 42.9256  7878.51  87.7272
 43.1236  7675.38  86.6964
 43.3216  7835.01  87.3425
 43.5196  7619.27  86.1971
 43.7176  7684.75  86.9523
 43.9156  7607.51  86.4275
 44.1136  7485.19  85.2881
 44.3116  7627.52  86.1097
 44.5096  7527.09  85.8476
 44.7076  7509.02  85.675
 44.9056  7522.5  85.6215
 45.1036  7515.94  85.2123
 45.3016  7408.04  85.0945
 45.4996  7218.68  83.9408
 45.6976  7258.72  84.3476
 45.8956  7403.25  84.9994
 46.0936  7356.58  84.7349
 46.2916  7307.91  84.4275
 46.4896  7440.62  85.2316
 46.6876  7201.74  84.552
 46.8856  7169.95  83.6273
 47.0836  7212.08  84.1289
 47.2816  7086.21  83.2699
 47.4796  7146.66  83.7202
 47.6776  7057.95  84.1404
 47.8756  7077.29  83.4408
 48.0736  7141.1  84.2707
 48.2716  6920.76  82.7796
 48.4696  7100.81  83.4466
 48.6676  6963.98  83.2189
 48.8656  6943.36  82.8126
 49.0636  6991.67  83.0491
 49.2616  6839.1  82.1894
 49.4596  6843.82  81.7839
 49.6576  6862.83  82.1159
 49.8556  6711.28  81.2247
 50.0536  6769.09  82.0198
 50.2516  6822.07  82.4701
 50.4496  6690.2  81.3252
 50.6476  6752.41  81.3929
 50.8456  6738.62  81.3996
 51.0436  6662.49  81.3704
 51.2416  6615.92  80.7579
 51.4396  6405.89  79.8575
 51.6376  6476.14  80.1225
 51.8356  6474.8  79.752
 52.0336  6448.31  80.0907
 52.2316  6424.18  80.2873
 52.4296  6466.56  80.2473
 52.6276  6458.85  80.3175
 52.8256  6530.48  80.3203
 53.0236  6269.96  79.3273
 53.2216  6373.04  80.0104
 53.4196  6289.73  79.4109
 53.6176  6344.19  80.228
 53.8156  6229.29  79.1749
 54.0136  6258.86  79.5338
 54.2116  6297.25  79.4419
 54.4096  6331.06  79.7045
 54.6076  6206.99  79.2685
 54.8056  6174.68  78.8467
 55.0036  6158.96  79.1347
 55.2016  6209.25  79.0096
 55.3996  6170.28  78.731
 55.5976  6185.63  79.0172
 55.7956  6182.52  78.8119
 55.9936  6176.81  78.9123
 56.1916  6067.4  78.2198
 56.3896  6198.15  79.0555
 56.5876  6134.94  79.2006
 56.7856  6131.19  78.6586
 56.9836  5996.73  77.5817
 57.1816  6163.35  79.0307
 57.3796  6232.58  79.2706
 57.5776  6183.73  78.8906
 57.7756  6107.08  79.0328
 57.9736  6107.09  78.7041
 58.1716  6163.52  79.3127
 58.3696  6046.39  78.2992
 58.5676  6154.52  78.4654
 58.7656  6068.21  78.5922
 58.9636  6233.44  79.6927
 59.1616  6087.44  78.8848
 59.3596  6266.54  79.2842
 59.5576  6214.25  79.0102
 59.7556  6051.54  78.3876
 59.9536  6160.99  78.9912
 60.1516  6075.78  79.2944
 60.1996  0.0000000E+00  0.0000000E+00