File: docs/examples/opeando_xrd/IS17_D/Data/IS17_D/17_Da_f00064.xye
# /beamlines/bl04/projects/cycle2025-II/20250340211-lsimonelli/DATA/IS17_D/17_Da_f00064.xye : mythproc.py merge -s 0.006 -l 0.5 -f /beamlines/bl04/inhouse/ff/FlatField/ff_20Nov2024rod8mm60s_17keV.raw -b True -c true -o xye /beamlines/bl04/projects/cycle2025-II/20250340211-lsimonelli/DATA/IS17_D/17_Da_00064.dat
# IsMon = [6779231, 6784537, 6780691]  IsPos = [-1.4999, -2.4883, -3.4988]
# Wave = 0.4962  CalPath /beamlines/bl04/projects/cycle2025-II/20250340211-lsimonelli/DATA/Align/Si_Pos1_25keV_f00001.cal
# Date = 2025-09-24_11:23:44 Dt = 4.8000  Bin = 0.0060  <imon> = 6781486 +/- 2238 (Min/Max) 6779231 / 6784537
# icurr 251.6275  mocoIn 1.7171E-05  mocoOut 0.8058  i15 7.10005e+06  imon 6.78149e+06  i7 6.6667  iEMpd_timer 4.8000  iEMpd_1 3.4250E-08  iEMpd_2 7.9101E-08  iEMpd_3 1.7168E-08  iEMpd_4 4.7566E-08  iEMhp_timer 4.8000  iEMhp_1 4.9172E-06  iEMhp_2 -2.4559E-08  iEMhp_3 -2.4630E-08  iEMhp_4 -2.1557E-08
#      9776
 1.7416  69609.2  263.955
 1.9396  45800.9  214.378
 2.1376  32259.7  179.919
 2.3356  29103.5  170.533
 2.5336  27505.6  166.368
 2.7316  25308.9  159.668
 2.9296  24214.5  156.341
 3.1276  23764.8  154.44
 3.3256  23479.6  153.192
 3.5236  25272  158.71
 3.7216  23199.7  153.309
 3.9196  22956.6  151.733
 4.1176  22438.3  149.788
 4.3156  23988.7  155.037
 4.5136  26623.8  162.299
 4.7116  27256.8  165.36
 4.9096  26808.2  163.433
 5.1076  26269.9  162.36
 5.3056  26812.4  163.759
 5.5036  26565.8  162.881
 5.7016  26944.1  164.016
 5.8996  27746  165.651
 6.0976  28265.1  168.639
 6.2956  28758.4  169.427
 6.4936  29597.1  171.08
 6.6916  29968.7  173.148
 6.8896  30841.7  175.512
 7.0876  31707.4  178.687
 7.2856  31648.8  177.575
 7.4836  32279.3  178.744
 7.6816  33113.5  181.499
 7.8796  34364.6  184.88
 8.0776  36728.7  192.126
 8.2756  38297.8  194.783
 8.4736  38455.8  194.983
 8.6716  37782.9  193.896
 8.8696  37861.1  194.626
 9.0676  37343.1  192.642
 9.2656  36045.9  189.959
 9.4636  35471.7  186.837
 9.6616  34580.9  185.253
 9.8596  33361.1  181.391
 10.0576  31744.4  177.599
 10.2556  30310.5  173.992
 10.4536  30861.8  175.162
 10.6516  30729.6  174.989
 10.8496  28180.8  166.996
 11.0476  27502.7  164.991
 11.2456  27601.6  165.828
 11.4436  27372.5  164.297
 11.6416  26463.3  161.912
 11.8396  25066.4  157.787
 12.0376  24950.4  157.054
 12.2356  24973.2  157.524
 12.4336  24644.7  156.029
 12.6316  24139.1  154.702
 12.8296  24542.7  155.618
 13.0276  25034.9  157.346
 13.2256  24735.3  156.778
 13.4236  24682.3  156.376
 13.6216  24730.2  156.55
 13.8196  24863.6  156.727
 14.0176  24192.8  154.888
 14.2156  23840  152.793
 14.4136  22628  150.237
 14.6116  22289.7  148.314
 14.8096  21795.3  146.649
 15.0076  20576.2  146.33
 15.2056  20104.2  140.43
 15.4036  19173  137.978
 15.6016  18920.5  136.14
 15.7996  18612.1  135.314
 15.9976  17574.3  134.45
 16.1956  17242.6  131.036
 16.3936  16725  128.227
 16.5916  16598.2  128.376
 16.7896  16813.2  129.265
 16.9876  16365.1  128.987
 17.1856  16228.4  126.793
 17.3836  15625.4  124.308
 17.5816  15267.7  123.381
 17.7796  15093.2  122.604
 17.9776  15089.2  123.395
 18.1756  15654.2  124.355
 18.3736  15308.2  123.485
 18.5716  14773.2  121.063
 18.7696  14796.7  120.724
 18.9676  14356.1  118.722
 19.1656  14189  118.578
 19.3636  14173.5  118.719
 19.5616  14088.4  118.532
 19.7596  14336.3  118.977
 19.9576  14841.8  121.105
 20.1556  14112.5  118.616
 20.3536  13811.1  116.723
 20.5516  13624  116.377
 20.7496  13331.1  115.059
 20.9476  13442  115.29
 21.1456  13571.9  116.169
 21.3436  13170.5  114.397
 21.5416  13233.4  114.671
 21.7396  12918.5  113.137
 21.9376  12952.2  113.056
 22.1356  13026.2  113.49
 22.3336  12853.9  113.032
 22.5316  13122.2  114.295
 22.7296  12649.3  111.585
 22.9276  12799.5  112.921
 23.1256  13119.9  113.802
 23.3236  12756  112.782
 23.5216  12804.1  112.654
 23.7196  12619.5  111.786
 23.9176  12546.7  111.218
 24.1156  12301.4  110.593
 24.3136  11895.5  109.533
 24.5116  12123.3  110.098
 24.7096  11695.6  107.954
 24.9076  11478.9  106.984
 25.1056  11290  106.557
 25.3036  11333.7  106.265
 25.5016  11334.7  106.314
 25.6996  11147.5  105.007
 25.8976  11227  105.818
 26.0956  11195.2  105.697
 26.2936  11090.4  104.831
 26.4916  11199.9  105.234
 26.6896  10765.9  103.478
 26.8876  10760.4  103.306
 27.0856  10792.6  103.505
 27.2836  10538.7  102.232
 27.4816  10542.1  102.127
 27.6796  10393.6  101.782
 27.8776  10379.6  101.567
 28.0756  10338.7  101.655
 28.2736  10316.2  101.123
 28.4716  10048.2  99.8525
 28.6696  10167.4  100.29
 28.8676  9945.95  99.5394
 29.0656  9848.36  99.0442
 29.2636  9899.86  99.0781
 29.4616  9807.68  98.7924
 29.6596  9738.66  98.0092
 29.8576  9715.97  98.5863
 30.0556  9712.42  98.4486
 30.2536  9807.9  98.7179
 30.4516  9600.08  97.3368
 30.6496  9521.97  96.6677
 30.8476  9460.76  96.7991
 31.0456  9438.98  96.6461
 31.2436  9605.08  96.7516
 31.4416  9337.64  95.561
 31.6396  9462.69  96.2461
 31.8376  9331.86  95.1233
 32.0356  9172.51  94.8714
 32.2336  9197.71  94.3961
 32.4316  9081.84  94.1601
 32.6296  9055.24  93.8951
 32.8276  9133.53  94.0864
 33.0256  8973.45  93.3291
 33.2236  8968.27  93.4484
 33.4216  9058.5  93.602
 33.6196  8947.1  93.3155
 33.8176  8952.1  93.5134
 34.0156  8817.9  92.4186
 34.2136  8819.25  92.4671
 34.4116  8788.15  92.5757
 34.6096  8613.07  91.4113
 34.8076  8579  91.6368
 35.0056  8659.88  91.7597
 35.2036  8575.38  91.5136
 35.4016  8562.76  91.3736
 35.5996  8525.11  91.2112
 35.7976  8471.24  91.1971
 35.9956  8621.74  91.6419
 36.1936  8439.69  90.5357
 36.3916  8319.08  90.0279
 36.5896  8428.58  91.6329
 36.7876  8539.7  91.6306
 36.9856  8117.45  89.3604
 37.1836  8453.26  90.2816
 37.3816  8348  90.0903
 37.5796  8133.71  90.6491
 37.7776  8039.44  88.5129
 37.9756  8118.04  88.8237
 38.1736  8332.12  90.1914
 38.3716  8174.11  89.6047
 38.5696  8056.88  89.3247
 38.7676  7994.93  88.4845
 38.9656  7986.32  88.0743
 39.1636  7936.46  88.0667
 39.3616  7909.34  87.8407
 39.5596  7891.75  88.5981
 39.7576  7941.83  88.2463
 39.9556  7988.02  88.1494
 40.1536  8118.22  89.0671
 40.3516  8162.44  89.3189
 40.5496  8127.04  89.3839
 40.7476  8113.01  89.3103
 40.9456  8213.33  89.6092
 41.1436  7973.96  88.0187
 41.3416  8072.35  88.8668
 41.5396  7911.79  87.7463
 41.7376  7926.96  88.1629
 41.9356  7854.97  87.6252
 42.1336  7991.13  88.5305
 42.3316  7914.41  88.2981
 42.5296  7922.29  87.861
 42.7276  7961.83  88.3209
 42.9256  8054.29  88.7014
 43.1236  7806.58  87.4321
 43.3216  7883.17  87.6137
 43.5196  7757.41  86.9723
 43.7176  7687.73  86.9748
 43.9156  7615.7  86.4722
 44.1136  7573.43  85.7847
 44.3116  7652.4  86.2476
 44.5096  7649.8  86.5396
 44.7076  7625.38  86.3285
 44.9056  7645.78  86.3299
 45.1036  7569.61  85.5235
 45.3016  7364.01  84.8512
 45.4996  7354.71  84.7362
 45.6976  7295.43  84.5671
 45.8956  7485.79  85.4667
 46.0936  7489.78  85.4379
 46.2916  7425  85.1032
 46.4896  7467.71  85.3776
 46.6876  7318  85.2351
 46.8856  7209.77  83.8572
 47.0836  7201.34  84.0721
 47.2816  7173.6  83.7747
 47.4796  7204.49  84.0567
 47.6776  7100.15  84.3871
 47.8756  7087.86  83.4974
 48.0736  7100.01  84.0359
 48.2716  7063.12  83.6667
 48.4696  7093.08  83.4155
 48.6676  7076  83.8911
 48.8656  7156.06  84.0817
 49.0636  7134.87  83.9046
 49.2616  6966.82  82.8364
 49.4596  6921.47  82.3901
 49.6576  6986.27  82.8573
 49.8556  6946.02  82.6301
 50.0536  6913.58  82.8861
 50.2516  6908.54  82.9954
 50.4496  6888.48  82.5186
 50.6476  6811.22  81.7403
 50.8456  6806.46  81.7979
 51.0436  6796.14  82.1781
 51.2416  6719.32  81.3935
 51.4396  6612.3  81.1239
 51.6376  6674.36  81.3305
 51.8356  6527.53  80.0694
 52.0336  6546.35  80.7058
 52.2316  6441.69  80.4046
 52.4296  6511.61  80.5189
 52.6276  6522.35  80.7144
 52.8256  6602.63  80.7624
 53.0236  6421  80.273
 53.2216  6349.76  79.8585
 53.4196  6375.6  79.9479
 53.6176  6315.24  80.0416
 53.8156  6378.59  80.1164
 54.0136  6459.11  80.798
 54.2116  6395.46  80.0598
 54.4096  6313.23  79.5799
 54.6076  6304.07  79.8816
 54.8056  6255.19  79.3623
 55.0036  6275.53  79.8837
 55.2016  6284.83  79.493
 55.3996  6283.22  79.4436
 55.5976  6251.64  79.4342
 55.7956  6312.51  79.6385
 55.9936  6238.03  79.3056
 56.1916  6278.67  79.5615
 56.3896  6287.32  79.6217
 56.5876  6121.6  79.112
 56.7856  6260.16  79.4735
 56.9836  6147  78.5478
 57.1816  6168.33  79.0646
 57.3796  6211.66  79.1331
 57.5776  6254.19  79.3406
 57.7756  6091.66  78.9271
 57.9736  6148.34  78.9713
 58.1716  6222.44  79.6887
 58.3696  6180.4  79.1605
 58.5676  6239.08  79.0042
 58.7656  6103.56  78.8188
 58.9636  6226.11  79.6418
 59.1616  6265.56  80.0206
 59.3596  6315.18  79.5945
 59.5576  6139.51  78.5395
 59.7556  6240.56  79.6083
 59.9536  6219.18  79.3692
 60.1516  6344.38  81.0342
 60.1996  0.0000000E+00  0.0000000E+00