File: docs/examples/opeando_xrd/IS17_D/Data/IS17_D/17_Db_f00036.xye
# /beamlines/bl04/projects/cycle2025-II/20250340211-lsimonelli/DATA/IS17_D/17_Db_f00036.xye : mythproc.py merge -s 0.006 -l 0.5 -f /beamlines/bl04/inhouse/ff/FlatField/ff_20Nov2024rod8mm60s_17keV.raw -b True -c true -o xye /beamlines/bl04/projects/cycle2025-II/20250340211-lsimonelli/DATA/IS17_D/17_Db_00036.dat
# IsMon = [6774707, 6774267, 6775518]  IsPos = [-1.5000, -2.4885, -3.4988]
# Wave = 0.4962  CalPath /beamlines/bl04/projects/cycle2025-II/20250340211-lsimonelli/DATA/Align/Si_Pos1_25keV_f00001.cal
# Date = 2025-09-24_03:43:56 Dt = 4.8000  Bin = 0.0060  <imon> = 6774831 +/- 518 (Min/Max) 6774267 / 6775518
# icurr 251.6942  mocoIn 1.7180E-05  mocoOut 0.8057  i15 7.09414e+06  imon 6.77483e+06  i7 4.0000  iEMpd_timer 4.8000  iEMpd_1 3.4571E-08  iEMpd_2 7.7760E-08  iEMpd_3 1.6815E-08  iEMpd_4 4.8790E-08  iEMhp_timer 4.8000  iEMhp_1 4.9193E-06  iEMhp_2 -2.6118E-08  iEMhp_3 -2.4061E-08  iEMhp_4 -2.1387E-08
#      9776
 1.7416  71567.2  267.6
 1.9396  49114.1  221.975
 2.1376  35866.1  189.679
 2.3356  31741.3  178.065
 2.5336  29871.8  173.35
 2.7316  27331.8  165.937
 2.9296  26169.9  162.53
 3.1276  25570.3  160.184
 3.3256  24674.1  157.025
 3.5236  26496.7  162.666
 3.7216  23888.6  155.559
 3.9196  23597.1  153.805
 4.1176  23475.9  153.196
 4.3156  24392.9  156.336
 4.5136  26860.4  163.024
 4.7116  27743.7  166.817
 4.9096  27073.4  164.228
 5.1076  26812.6  164.011
 5.3056  26733.3  163.492
 5.5036  26676.5  163.32
 5.7016  26689.3  163.234
 5.8996  27375.5  164.554
 6.0976  28225.4  168.493
 6.2956  28250.9  167.924
 6.4936  28898.8  169.03
 6.6916  29397.9  171.47
 6.8896  30143.2  173.489
 7.0876  31313.1  177.475
 7.2856  30923.8  175.513
 7.4836  31353.3  176.078
 7.6816  31853.8  177.984
 7.8796  32587.4  180.044
 8.0776  33962.8  184.767
 8.2756  35734.7  188.158
 8.4736  36216.5  189.237
 8.6716  35299.8  187.443
 8.8696  36027.6  189.85
 9.0676  35009.6  186.49
 9.2656  34272.4  185.191
 9.4636  33139.4  180.603
 9.6616  32325.9  179.08
 9.8596  31710.6  176.828
 10.0576  29748.7  171.933
 10.2556  28962.1  170.083
 10.4536  28155.6  167.305
 10.6516  27254.5  164.81
 10.8496  26284.2  161.271
 11.0476  25124.1  157.645
 11.2456  24810.2  157.229
 11.4436  24950.2  156.861
 11.6416  25838.8  159.963
 11.8396  23902.7  154.056
 12.0376  23267.7  151.634
 12.2356  22932.9  150.992
 12.4336  22954.6  150.585
 12.6316  23096.5  151.311
 12.8296  23143.8  151.08
 13.0276  23215  151.525
 13.2256  23483.9  152.756
 13.4236  23621.1  152.975
 13.6216  23941.2  154.002
 13.8196  25969.6  159.836
 14.0176  22632.9  149.817
 14.2156  22392  148.055
 14.4136  21455.8  146.29
 14.6116  21116.2  144.34
 14.8096  20458.7  142.059
 15.0076  19518  142.576
 15.2056  18807  135.835
 15.4036  17662.9  132.442
 15.6016  17577.8  131.231
 15.7996  16951.6  129.137
 15.9976  16814.9  131.448
 16.1956  16301  127.363
 16.3936  16226.6  126.271
 16.5916  15877.7  125.528
 16.7896  15632.5  124.622
 16.9876  15709.9  126.352
 17.1856  15384.6  123.463
 17.3836  15208.6  122.665
 17.5816  14555.6  120.471
 17.7796  14407.3  119.78
 17.9776  14022.1  118.929
 18.1756  13973  117.505
 18.3736  13882.5  117.594
 18.5716  13655.6  116.384
 18.7696  13612.8  115.771
 18.9676  13530.1  115.234
 19.1656  13248.6  114.598
 19.3636  13214  114.635
 19.5616  13277.3  115.08
 19.7596  13395.2  115.002
 19.9576  13735.4  116.502
 20.1556  14260.8  119.226
 20.3536  13380.2  114.878
 20.5516  12910.3  113.281
 20.7496  12757.6  112.461
 20.9476  12726.9  112.17
 21.1456  12571.4  111.804
 21.3436  12441.5  111.17
 21.5416  12282.8  110.482
 21.7396  11990.8  109.004
 21.9376  12104.4  109.3
 22.1356  12248.7  110.218
 22.3336  11742  108.028
 22.5316  12024  109.427
 22.7296  11947.6  108.461
 22.9276  11702.6  107.988
 23.1256  11950.3  108.611
 23.3236  12214.2  110.368
 23.5216  12230.5  110.081
 23.7196  12151.4  109.891
 23.9176  12221.6  109.751
 24.1156  11879.8  108.658
 24.3136  11516  107.761
 24.5116  11656.5  107.95
 24.7096  11325.8  106.22
 24.9076  11099.5  105.192
 25.1056  10787.2  103.889
 25.3036  10599.1  102.76
 25.5016  10710.1  103.333
 25.6996  10565.6  102.233
 25.8976  10659.4  103.109
 26.0956  10495.5  102.327
 26.2936  10444  101.744
 26.4916  10877.3  103.691
 26.6896  10455  101.95
 26.8876  10363.9  101.373
 27.0856  10145.8  100.313
 27.2836  10026  99.6532
 27.4816  9920.77  99.0626
 27.6796  10003.7  99.8412
 27.8776  10020  99.7799
 28.0756  9661.27  98.2652
 28.2736  9731.74  98.2101
 28.4716  9498.72  97.0805
 28.6696  9414.57  96.4989
 28.8676  9365.57  96.5866
 29.0656  9388.02  96.6805
 29.2636  9500.41  96.9757
 29.4616  9007.14  94.6828
 29.6596  8990.19  94.1729
 29.8576  8788.75  93.7707
 30.0556  8866.46  94.0617
 30.2536  9034.75  94.7444
 30.4516  9185.49  95.1897
 30.6496  9103.91  94.4944
 30.8476  9130.29  95.0721
 31.0456  9169.08  95.24
 31.2436  9175.31  94.5412
 31.4416  8977.95  93.7067
 31.6396  9039.25  94.0695
 31.8376  9004.44  93.4186
 32.0356  8958.91  93.7259
 32.2336  8940.66  93.064
 32.4316  8695.21  92.175
 32.6296  8620.55  91.547
 32.8276  8638.24  91.4941
 33.0256  8557.92  91.1383
 33.2236  8539.28  91.1664
 33.4216  8535.03  90.8446
 33.6196  8510.24  91.0028
 33.8176  8493.35  91.0782
 34.0156  8462.5  90.5463
 34.2136  8425.97  90.3669
 34.4116  8266.07  89.6747
 34.6096  8309.32  89.784
 34.8076  8313.04  90.2195
 35.0056  8151.15  89.0131
 35.2036  8457.01  90.8907
 35.4016  8177.55  89.2887
 35.5996  8193.4  89.4127
 35.7976  8076.98  89.0422
 35.9956  8190.11  89.3143
 36.1936  8165.65  89.0311
 36.3916  7953.79  88.0671
 36.5896  8099.62  90.3085
 36.7876  7767.04  87.3932
 36.9856  7607.45  86.5176
 37.1836  7748  86.4401
 37.3816  7732.94  86.7061
 37.5796  7874.4  89.1957
 37.7776  7877.3  87.604
 37.9756  7907.07  87.6524
 38.1736  7788.33  87.1777
 38.3716  7816.62  87.5981
 38.5696  7563.11  86.5491
 38.7676  7680.32  86.7171
 38.9656  7819.67  87.1422
 39.1636  7694.36  86.6859
 39.3616  7628.01  86.272
 39.5596  7544.7  86.6074
 39.7576  7506.63  85.8029
 39.9556  7603.73  86.0042
 40.1536  7790.19  87.2438
 40.3516  7693.49  86.7144
 40.5496  7697.44  86.7731
 40.7476  7682.63  86.91
 40.9456  7822.98  87.4539
 41.1436  7757.97  86.8115
 41.3416  7590.42  86.197
 41.5396  7620.08  86.1685
 41.7376  7598.02  86.3157
 41.9356  7557.27  85.9238
 42.1336  7814.94  87.5319
 42.3316  7548.77  86.2329
 42.5296  7648.52  86.3209
 42.7276  7669.61  86.6802
 42.9256  7650.35  86.4392
 43.1236  7552.78  85.9963
 43.3216  7534.16  85.739
 43.5196  7553.98  85.8062
 43.7176  7483.61  85.802
 43.9156  7164.04  83.8729
 44.1136  7209.76  83.706
 44.3116  7323.5  84.3783
 44.5096  7361.67  84.902
 44.7076  7374.31  84.9052
 44.9056  7634.54  86.2531
 45.1036  7443.07  84.7916
 45.3016  7434.13  85.239
 45.4996  7316.93  84.5061
 45.6976  7268.36  84.3979
 45.8956  7314.37  84.4841
 46.0936  7420.03  84.8426
 46.2916  7396.27  84.9374
 46.4896  7254.86  84.1538
 46.6876  7278.02  85.0004
 46.8856  7190.71  83.7462
 47.0836  7144.05  83.7259
 47.2816  7095.56  83.3262
 47.4796  7231.57  84.224
 47.6776  7064.06  84.188
 47.8756  7106.52  83.6128
 48.0736  7122.7  84.1597
 48.2716  7014.19  83.3391
 48.4696  7314.39  84.6899
 48.6676  7162.41  84.3992
 48.8656  7145.01  84.0149
 49.0636  7163.42  84.0664
 49.2616  7013.73  83.2221
 49.4596  7163.93  83.6647
 49.6576  7117.85  83.6245
 49.8556  7097.79  83.5309
 50.0536  7046.89  83.6764
 50.2516  7055.95  83.8372
 50.4496  7106.11  83.8174
 50.6476  7119.43  83.5728
 50.8456  6961.51  82.7114
 51.0436  6832.03  82.4007
 51.2416  6751.42  81.5852
 51.4396  6734.79  81.8862
 51.6376  6749.64  81.8036
 51.8356  6798.68  81.7203
 52.0336  6694.28  81.5863
 52.2316  6801.59  82.6083
 52.4296  6783.51  82.1963
 52.6276  6785.3  82.3182
 52.8256  6857.51  82.3103
 53.0236  6865.28  83.0033
 53.2216  6838.06  82.8528
 53.4196  6741.37  82.1914
 53.6176  6782.64  82.9511
 53.8156  6788.38  82.6493
 54.0136  6419.88  80.5423
 54.2116  6651.41  81.6106
 54.4096  6392.6  80.0805
 54.6076  6416.83  80.5685
 54.8056  6301.28  79.61
 55.0036  6443.45  80.7826
 55.2016  6347.72  79.7664
 55.3996  6212.66  78.9773
 55.5976  6301.43  79.7344
 55.7956  6243.53  79.1753
 55.9936  6383.71  80.1988
 56.1916  6174.53  78.8975
 56.3896  6136.14  78.6301
 56.5876  6115.84  79.052
 56.7856  6123.6  78.6119
 56.9836  6151.36  78.5543
 57.1816  6203.82  79.2473
 57.3796  6011.44  77.8311
 57.5776  6066.75  78.0664
 57.7756  5971.08  78.1244
 57.9736  5939.05  77.5826
 58.1716  5896.93  77.5699
 58.3696  5727.72  76.2143
 58.5676  5715.58  75.6232
 58.7656  5716.98  76.2908
 58.9636  5808.65  76.931
 59.1616  5828.77  77.1925
 59.3596  5770.21  76.0769
 59.5576  5940.1  77.245
 59.7556  5677.9  75.9265
 59.9536  5816.99  76.7516
 60.1516  5762.32  77.2191
 60.1996  0.0000000E+00  0.0000000E+00