File: docs/examples/opeando_xrd/IS17_D/Data/IS17_D/17_Db_f00042.xye
# /beamlines/bl04/projects/cycle2025-II/20250340211-lsimonelli/DATA/IS17_D/17_Db_f00042.xye : mythproc.py merge -s 0.006 -l 0.5 -f /beamlines/bl04/inhouse/ff/FlatField/ff_20Nov2024rod8mm60s_17keV.raw -b True -c true -o xye /beamlines/bl04/projects/cycle2025-II/20250340211-lsimonelli/DATA/IS17_D/17_Db_00042.dat
# IsMon = [6774726, 6779100, 6778925]  IsPos = [-1.4999, -2.4884, -3.4988]
# Wave = 0.4962  CalPath /beamlines/bl04/projects/cycle2025-II/20250340211-lsimonelli/DATA/Align/Si_Pos1_25keV_f00001.cal
# Date = 2025-09-24_05:23:05 Dt = 4.8000  Bin = 0.0060  <imon> = 6777584 +/- 2022 (Min/Max) 6774726 / 6779100
# icurr 251.8108  mocoIn 1.7185E-05  mocoOut 0.8067  i15 7.0963e+06  imon 6.77758e+06  i7 5.6667  iEMpd_timer 4.8000  iEMpd_1 3.4424E-08  iEMpd_2 7.6882E-08  iEMpd_3 1.6091E-08  iEMpd_4 4.8223E-08  iEMhp_timer 4.8000  iEMhp_1 4.9215E-06  iEMhp_2 -2.6356E-08  iEMhp_3 -2.4075E-08  iEMhp_4 -2.1031E-08
#      9776
 1.7416  71722.1  267.943
 1.9396  49614.6  223.14
 2.1376  36627.2  191.72
 2.3356  32465.2  180.12
 2.5336  30432.8  175.005
 2.7316  28208.9  168.578
 2.9296  26923.8  164.86
 3.1276  26280.5  162.41
 3.3256  25366.5  159.205
 3.5236  27063.5  164.24
 3.7216  24637.8  157.978
 3.9196  24047.9  155.269
 4.1176  24009.8  154.943
 4.3156  24682.1  157.254
 4.5136  27191.5  164.021
 4.7116  28013.9  167.632
 4.9096  27372.3  165.134
 5.1076  26973.1  164.515
 5.3056  27040.3  164.424
 5.5036  26671.4  163.215
 5.7016  27088.9  164.454
 5.8996  27665.3  165.422
 6.0976  28446  169.153
 6.2956  28666.1  169.149
 6.4936  29423.2  170.559
 6.6916  29677.2  172.294
 6.8896  30446  174.356
 7.0876  31503.7  178.105
 7.2856  31426.3  176.932
 7.4836  31906.6  177.625
 7.6816  32497.4  179.774
 7.8796  33088  181.391
 8.0776  34787.8  186.979
 8.2756  36498.6  190.142
 8.4736  36898.4  190.989
 8.6716  36247.9  189.916
 8.8696  36827.2  191.961
 9.0676  35772.4  188.511
 9.2656  34786  186.597
 9.4636  33817.9  182.447
 9.6616  32997.5  180.944
 9.8596  32525  179.1
 10.0576  30362.2  173.693
 10.2556  29652.1  172.103
 10.4536  28389.1  168.004
 10.6516  27402  165.263
 10.8496  26478.6  161.875
 11.0476  25815.2  159.841
 11.2456  24992  157.793
 11.4436  25057.3  157.197
 11.6416  26740  162.728
 11.8396  24630.2  156.388
 12.0376  23851.2  153.541
 12.2356  23373.9  152.402
 12.4336  23484.3  152.313
 12.6316  23379.8  152.243
 12.8296  23488.9  152.218
 13.0276  23767.6  153.312
 13.2256  24266.1  155.284
 13.4236  24076.7  154.445
 13.6216  24216.6  154.892
 13.8196  26622.7  161.869
 14.0176  23306.3  152.022
 14.2156  22961.6  149.936
 14.4136  22056.1  148.332
 14.6116  21562.9  145.856
 14.8096  20889.2  143.544
 15.0076  19930.4  144.072
 15.2056  19070.9  136.772
 15.4036  18213.9  134.479
 15.6016  17911  132.456
 15.7996  17312.7  130.489
 15.9976  17163.6  132.806
 16.1956  16460.4  127.992
 16.3936  16440.6  127.115
 16.5916  16089.9  126.386
 16.7896  16006  126.11
 16.9876  15991.5  127.506
 17.1856  15825.8  125.214
 17.3836  15402.2  123.448
 17.5816  14921.5  121.975
 17.7796  14770.3  121.29
 17.9776  14354.3  120.329
 18.1756  14363.2  119.131
 18.3736  13933.6  117.81
 18.5716  13849  117.208
 18.7696  13754.6  116.382
 18.9676  13767.3  116.242
 19.1656  13400.8  115.25
 19.3636  13373.6  115.328
 19.5616  13319.9  115.256
 19.7596  13539  115.622
 19.9576  13578.9  115.82
 20.1556  14235.9  119.126
 20.3536  14005  117.541
 20.5516  13210.9  114.586
 20.7496  12963.9  113.461
 20.9476  12927.8  113.061
 21.1456  12739.1  112.545
 21.3436  12659.1  112.144
 21.5416  12455.8  111.254
 21.7396  12380  110.763
 21.9376  12375.8  110.513
 22.1356  12411.8  110.798
 22.3336  12052  109.452
 22.5316  12179.9  110.123
 22.7296  12142.8  109.322
 22.9276  11985.7  109.276
 23.1256  12148  109.505
 23.3236  12466.9  111.513
 23.5216  12431.2  110.988
 23.7196  12216.8  109.986
 23.9176  12305  110.139
 24.1156  12085  109.599
 24.3136  11777.4  108.982
 24.5116  11811  108.674
 24.7096  11456  106.832
 24.9076  11375.3  106.503
 25.1056  11057.6  105.456
 25.3036  10739.1  103.432
 25.5016  10879.2  104.153
 25.6996  10783.2  103.279
 25.8976  10787  103.735
 26.0956  10569.6  102.686
 26.2936  10660.8  102.793
 26.4916  10900.3  103.808
 26.6896  10608.9  102.698
 26.8876  10432.4  101.703
 27.0856  10382.2  101.518
 27.2836  10131.3  100.181
 27.4816  10129.2  100.109
 27.6796  10033  99.992
 27.8776  10306.8  101.2
 28.0756  9869.24  99.3093
 28.2736  9819.65  98.6495
 28.4716  9595.04  97.5687
 28.6696  9786.26  98.387
 28.8676  9597.78  97.785
 29.0656  9468.17  97.097
 29.2636  9529.53  97.2065
 29.4616  9136.88  95.3528
 29.6596  9295.98  95.7502
 29.8576  8952.95  94.6338
 30.0556  9016.53  94.8539
 30.2536  9179.97  95.5021
 30.4516  9313.32  95.8519
 30.6496  9281.69  95.4215
 30.8476  9194.01  95.4018
 31.0456  9332.96  96.0883
 31.2436  9367.61  95.5442
 31.4416  9190.76  94.8144
 31.6396  9138.35  94.5769
 31.8376  9221.46  94.5355
 32.0356  9085.57  94.3973
 32.2336  9148.68  94.15
 32.4316  8672.93  92.0494
 32.6296  8661.8  91.8276
 32.8276  8836.55  92.5412
 33.0256  8786.22  92.3375
 33.2236  8757.72  92.3374
 33.4216  8678.22  91.6008
 33.6196  8724.55  92.1427
 33.8176  8752.82  92.464
 34.0156  8570.35  91.12
 34.2136  8601.52  91.3115
 34.4116  8366.12  90.2118
 34.6096  8456.42  90.5746
 34.8076  8404.17  90.7133
 35.0056  8516.79  90.985
 35.2036  8642.52  91.8866
 35.4016  8433.09  90.6769
 35.5996  8296.42  89.9703
 35.7976  8253.9  90.0115
 35.9956  8424.1  90.5878
 36.1936  8372.52  90.1572
 36.3916  8155.65  89.18
 36.5896  8105.63  89.8813
 36.7876  7834.28  87.7624
 36.9856  7840.72  87.8172
 37.1836  7865.03  87.0812
 37.3816  7978.26  88.0672
 37.5796  7930.45  89.5145
 37.7776  8066.75  88.6603
 37.9756  8013.83  88.2559
 38.1736  8042.52  88.6022
 38.3716  8033.17  88.8147
 38.5696  7792.39  87.8455
 38.7676  7848.6  87.6771
 38.9656  7810.21  87.0991
 39.1636  7885.78  87.7902
 39.3616  7780.96  87.1335
 39.5596  7559.79  86.7083
 39.7576  7719.19  87.0096
 39.9556  7754.12  86.8444
 40.1536  7858.59  87.631
 40.3516  7964.49  88.2239
 40.5496  7793.02  87.5125
 40.7476  7847.06  87.8351
 40.9456  7921.5  88.0012
 41.1436  7905.75  87.6395
 41.3416  7711.39  86.8814
 41.5396  7764.99  86.9931
 41.7376  7785.32  87.3766
 41.9356  7682.72  86.6494
 42.1336  7891.33  87.9607
 42.3316  7708.31  87.1341
 42.5296  7835.75  87.3735
 42.7276  7836.46  87.6173
 42.9256  7667.92  86.5465
 43.1236  7679.86  86.7088
 43.3216  7720.85  86.6968
 43.5196  7631.62  86.2464
 43.7176  7636.92  86.6781
 43.9156  7355.74  84.9774
 44.1136  7374.78  84.6479
 44.3116  7468.7  85.2005
 44.5096  7375.33  84.9708
 44.7076  7331.61  84.6403
 44.9056  7577.85  85.94
 45.1036  7588.01  85.6216
 45.3016  7447.92  85.3198
 45.4996  7517.97  85.6606
 45.6976  7441.54  85.4015
 45.8956  7442.02  85.2211
 46.0936  7544.81  85.814
 46.2916  7518.3  85.6404
 46.4896  7445.28  85.2498
 46.6876  7370.13  85.5353
 46.8856  7402.9  84.9771
 47.0836  7250.17  84.3561
 47.2816  7298.55  84.5052
 47.4796  7330.87  84.799
 47.6776  7235.15  85.1894
 47.8756  7322.02  84.8682
 48.0736  7293.56  85.1718
 48.2716  7258.4  84.7723
 48.4696  7377.19  85.0486
 48.6676  7417.82  85.8932
 48.8656  7336.07  85.1338
 49.0636  7390.9  85.405
 49.2616  7113.9  83.8154
 49.4596  7229.05  84.0463
 49.6576  7231.13  84.2939
 49.8556  7189.96  84.0718
 50.0536  7240.33  84.8078
 50.2516  7226.27  84.8728
 50.4496  7167.98  84.1794
 50.6476  7176.05  83.9042
 50.8456  7155.52  83.8716
 51.0436  6972.4  83.235
 51.2416  6930.14  82.6532
 51.4396  6860.74  82.6423
 51.6376  6861.32  82.4648
 51.8356  6902.62  82.3326
 52.0336  6902.3  82.8587
 52.2316  6945.92  83.4884
 52.4296  6837.4  82.5257
 52.6276  6804.22  82.4307
 52.8256  6929.53  82.7482
 53.0236  6905.02  83.2412
 53.2216  6909.3  83.3046
 53.4196  6889.99  83.1021
 53.6176  6891.18  83.6161
 53.8156  6795.34  82.6945
 54.0136  6510.54  81.1095
 54.2116  6761.37  82.298
 54.4096  6550.97  81.0642
 54.6076  6504.07  81.104
 54.8056  6447.65  80.5469
 55.0036  6519.03  81.4014
 55.2016  6613.89  81.4935
 55.3996  6375.5  80.0075
 55.5976  6354.73  80.0698
 55.7956  6452.31  80.4899
 55.9936  6525.51  81.0809
 56.1916  6350.5  80.0089
 56.3896  6193.54  78.9966
 56.5876  6168.01  79.388
 56.7856  6172.58  78.9239
 56.9836  6395.66  80.1033
 57.1816  6261.86  79.6204
 57.3796  6156.25  78.7735
 57.5776  6197.61  78.9253
 57.7756  6045.81  78.6105
 57.9736  6080.5  78.508
 58.1716  6109.5  78.956
 58.3696  5834.24  76.9157
 58.5676  5995.2  77.4423
 58.7656  5837.72  77.0843
 58.9636  5872.91  77.3464
 59.1616  5882.14  77.537
 59.3596  5928.6  77.1102
 59.5576  5948.48  77.2958
 59.7556  5741.36  76.3459
 59.9536  5914.16  77.3862
 60.1516  5925.03  78.298
 60.1996  0.0000000E+00  0.0000000E+00