File: docs/examples/opeando_xrd/IS17_D/Data/IS17_D/17_Da_f00081.xye
# /beamlines/bl04/projects/cycle2025-II/20250340211-lsimonelli/DATA/IS17_D/17_Da_f00081.xye : mythproc.py merge -s 0.006 -l 0.5 -f /beamlines/bl04/inhouse/ff/FlatField/ff_20Nov2024rod8mm60s_17keV.raw -b True -c true -o xye /beamlines/bl04/projects/cycle2025-II/20250340211-lsimonelli/DATA/IS17_D/17_Da_00081.dat
# IsMon = [6769774, 6769333, 6767582]  IsPos = [-1.4999, -2.4884, -3.4988]
# Wave = 0.4962  CalPath /beamlines/bl04/projects/cycle2025-II/20250340211-lsimonelli/DATA/Align/Si_Pos1_25keV_f00001.cal
# Date = 2025-09-24_16:07:48 Dt = 4.8000  Bin = 0.0060  <imon> = 6768896 +/- 947 (Min/Max) 6767582 / 6769774
# icurr 250.8187  mocoIn 1.7107E-05  mocoOut 0.8023  i15 7.08438e+06  imon 6.7689e+06  i7 7.6667  iEMpd_timer 4.8000  iEMpd_1 3.3780E-08  iEMpd_2 7.7656E-08  iEMpd_3 1.6729E-08  iEMpd_4 4.6972E-08  iEMhp_timer 4.8000  iEMhp_1 4.8981E-06  iEMhp_2 -2.4454E-08  iEMhp_3 -2.4423E-08  iEMhp_4 -2.1159E-08
#      9776
 1.7416  69228.3  263.171
 1.9396  45515  213.662
 2.1376  31885  178.83
 2.3356  28757.8  169.477
 2.5336  27409.4  166.039
 2.7316  25075  158.927
 2.9296  23796.5  154.983
 3.1276  23443.9  153.385
 3.3256  22977.1  151.524
 3.5236  24798.2  157.222
 3.7216  23238.4  153.438
 3.9196  22741.2  151.019
 4.1176  22403.7  149.662
 4.3156  23556.1  153.636
 4.5136  26306.3  161.335
 4.7116  27245.4  165.322
 4.9096  26429  162.269
 5.1076  26239.7  162.258
 5.3056  26520.3  162.866
 5.5036  26254.4  161.932
 5.7016  26641.1  163.092
 5.8996  27450.9  164.763
 6.0976  28157.7  168.304
 6.2956  28589.1  168.935
 6.4936  29081.3  169.576
 6.6916  29634.3  172.18
 6.8896  30380  174.195
 7.0876  31287.7  177.5
 7.2856  31310.3  176.625
 7.4836  31650.9  176.922
 7.6816  32462.5  179.709
 7.8796  34078.6  184.127
 8.0776  37178.7  193.32
 8.2756  37614.1  193.052
 8.4736  38100.1  194.1
 8.6716  37318.2  192.732
 8.8696  37618.2  193.979
 9.0676  36540.5  190.537
 9.2656  35136.8  187.527
 9.4636  34758  184.947
 9.6616  34249.5  184.355
 9.8596  32860.6  180.024
 10.0576  31294.2  176.342
 10.2556  29824.1  172.583
 10.4536  31102.6  175.842
 10.6516  32635.3  180.339
 10.8496  27897.4  166.148
 11.0476  27574.3  165.212
 11.2456  28496.5  168.507
 11.4436  26825.3  162.65
 11.6416  25961  160.367
 11.8396  24769.4  156.843
 12.0376  24591.5  155.923
 12.2356  25147.2  158.084
 12.4336  24589.9  155.858
 12.6316  23672.7  153.192
 12.8296  24002.7  153.898
 13.0276  24696.9  156.29
 13.2256  24570  156.253
 13.4236  24547.9  155.95
 13.6216  24408.4  155.518
 13.8196  24725.7  156.293
 14.0176  24065.7  154.485
 14.2156  23617.1  152.077
 14.4136  22181  148.746
 14.6116  22049.8  147.515
 14.8096  21417.6  145.376
 15.0076  20189.2  144.945
 15.2056  19742.1  139.178
 15.4036  19116.4  137.788
 15.6016  18584.7  134.939
 15.7996  18249.4  134.001
 15.9976  17356.2  133.612
 16.1956  16984.9  130.042
 16.3936  16622.5  127.824
 16.5916  16519.5  128.063
 16.7896  16393.7  127.63
 16.9876  16281.7  128.648
 17.1856  16145.8  126.472
 17.3836  15472  123.704
 17.5816  15093.5  122.671
 17.7796  15197.7  123.023
 17.9776  15053.6  123.242
 18.1756  15504.4  123.756
 18.3736  15614  124.718
 18.5716  14550.1  120.143
 18.7696  14730.5  120.453
 18.9676  14222.6  118.162
 19.1656  14190.9  118.603
 19.3636  14089.6  118.373
 19.5616  13943.6  117.927
 19.7596  14038.8  117.732
 19.9576  14463.7  119.553
 20.1556  14051.5  118.363
 20.3536  13590.9  115.789
 20.5516  13439.1  115.584
 20.7496  13110.2  114.103
 20.9476  13332.8  114.812
 21.1456  13586.3  116.238
 21.3436  12935.9  113.37
 21.5416  13131  114.218
 21.7396  12711.8  112.235
 21.9376  12750.8  112.172
 22.1356  12970.4  113.253
 22.3336  12887.4  113.195
 22.5316  12754.3  112.689
 22.7296  12669.7  111.69
 22.9276  12465.7  111.457
 23.1256  12875.2  112.748
 23.3236  12601.2  112.088
 23.5216  12490.2  111.249
 23.7196  12504.4  111.265
 23.9176  12320.7  110.189
 24.1156  12230.7  110.267
 24.3136  11967.6  109.862
 24.5116  11961.3  109.358
 24.7096  11600.2  107.511
 24.9076  11462  106.895
 25.1056  11113.5  105.719
 25.3036  11207  105.673
 25.5016  11282.2  106.061
 25.6996  11150.2  105.024
 25.8976  11186.9  105.631
 26.0956  11065  105.081
 26.2936  11020.1  104.509
 26.4916  10885.7  103.756
 26.6896  10652.8  102.931
 26.8876  10609.9  102.575
 27.0856  10648.2  102.819
 27.2836  10400.1  101.5
 27.4816  10426.3  101.56
 27.6796  10307.5  101.358
 27.8776  10373.3  101.536
 28.0756  10397.6  101.948
 28.2736  10186  100.485
 28.4716  9984.58  99.5332
 28.6696  10073.6  99.823
 28.8676  9852.86  99.0708
 29.0656  9689.97  98.2303
 29.2636  9814.66  98.6482
 29.4616  9607.58  97.7916
 29.6596  9809.84  98.3781
 29.8576  9626.08  98.1403
 30.0556  9620.31  97.9828
 30.2536  9779.04  98.5841
 30.4516  9532.8  96.9867
 30.6496  9567.74  96.888
 30.8476  9520.68  97.0959
 31.0456  9209.43  95.451
 31.2436  9234.09  94.8514
 31.4416  9265.37  95.1864
 31.6396  9431.18  96.0844
 31.8376  9312.21  95.0246
 32.0356  9094.55  94.4686
 32.2336  9099.33  93.8774
 32.4316  9125.08  94.4267
 32.6296  9011.49  93.6717
 32.8276  9009.52  93.4342
 33.0256  8860.22  92.7372
 33.2236  8914.64  93.1651
 33.4216  8979.87  93.1976
 33.6196  8878.18  92.9566
 33.8176  8920.82  93.35
 34.0156  8754.5  92.0846
 34.2136  8687.51  91.7739
 34.4116  8645.03  91.7036
 34.6096  8681.4  91.7728
 34.8076  8628.74  91.9059
 35.0056  8634.35  91.6251
 35.2036  8638.53  91.8567
 35.4016  8573.03  91.4315
 35.5996  8444.77  90.779
 35.7976  8392.22  90.772
 35.9956  8380.39  90.3562
 36.1936  8427.89  90.4795
 36.3916  8364.02  90.3111
 36.5896  8394.6  91.4469
 36.7876  8407.86  90.9302
 36.9856  8212.48  89.8961
 37.1836  8227.74  89.0797
 37.3816  8261.3  89.6293
 37.5796  8134.69  90.6582
 37.7776  8021.88  88.4004
 37.9756  8065.87  88.5302
 38.1736  8221.78  89.5774
 38.3716  7992.1  88.5969
 38.5696  8134.82  89.762
 38.7676  7853.19  87.6954
 38.9656  7946.36  87.8522
 39.1636  7899.33  87.8506
 39.3616  7985.55  88.2674
 39.5596  7862.81  88.4312
 39.7576  7885.32  87.9315
 39.9556  7935.85  87.8585
 40.1536  7996.99  88.3995
 40.3516  7994.36  88.3905
 40.5496  7991.02  88.6392
 40.7476  8090.82  89.1962
 40.9456  8044.04  88.6829
 41.1436  7993.73  88.124
 41.3416  7954.59  88.2474
 41.5396  7862.52  87.5438
 41.7376  7982.67  88.473
 41.9356  7820.45  87.4299
 42.1336  7966.61  88.3875
 42.3316  7908.08  88.269
 42.5296  7996.01  88.2657
 42.7276  7853.88  87.7171
 42.9256  7938.44  88.0604
 43.1236  7818.23  87.4988
 43.3216  7806.61  87.1848
 43.5196  7718.06  86.7493
 43.7176  7655.43  86.7905
 43.9156  7573.36  86.2389
 44.1136  7627.48  86.0994
 44.3116  7577.59  85.8362
 44.5096  7632.59  86.4487
 44.7076  7472.74  85.4731
 44.9056  7543.75  85.7436
 45.1036  7516.92  85.2169
 45.3016  7464.41  85.4194
 45.4996  7413.24  85.064
 45.6976  7182.65  83.9059
 45.8956  7383.27  84.8793
 46.0936  7435.09  85.1783
 46.2916  7305.65  84.4163
 46.4896  7280.98  84.3041
 46.6876  7258.34  84.8697
 46.8856  7203.71  83.8299
 47.0836  7154.28  83.7848
 47.2816  7056.51  83.097
 47.4796  7163.32  83.8239
 47.6776  7024.75  83.9483
 47.8756  6985  82.8972
 48.0736  7116.99  84.1324
 48.2716  6938.66  82.8891
 48.4696  7047.32  83.127
 48.6676  6983.81  83.3254
 48.8656  6973.45  82.994
 49.0636  7030.33  83.2764
 49.2616  6768.43  81.7627
 49.4596  6974.42  82.5616
 49.6576  6843.73  81.9866
 49.8556  6843.55  82.022
 50.0536  6840.33  82.4483
 50.2516  6781.58  82.2239
 50.4496  6786.24  81.9057
 50.6476  6795.99  81.6534
 50.8456  6796.37  81.7353
 51.0436  6571.01  80.813
 51.2416  6553.56  80.3887
 51.4396  6509.38  80.5034
 51.6376  6560.71  80.6452
 51.8356  6604.27  80.5383
 52.0336  6450.44  80.1055
 52.2316  6498.12  80.745
 52.4296  6556.34  80.789
 52.6276  6435.16  80.1604
 52.8256  6504.91  80.1643
 53.0236  6363.93  79.9128
 53.2216  6300.09  79.5468
 53.4196  6322.44  79.6127
 53.6176  6384.25  80.475
 53.8156  6348.79  79.9263
 54.0136  6329.11  79.9848
 54.2116  6275.54  79.3038
 54.4096  6319.04  79.6283
 54.6076  6275.02  79.7006
 54.8056  6266.57  79.4346
 55.0036  6221.81  79.5407
 55.2016  6236.31  79.1803
 55.3996  6216.32  79.0247
 55.5976  6171.43  78.9247
 55.7956  6231.19  79.1251
 55.9936  6107.2  78.4584
 56.1916  6207.81  79.122
 56.3896  6137.45  78.6683
 56.5876  6088.4  78.9005
 56.7856  6018.5  77.9396
 56.9836  6072.92  78.0705
 57.1816  6139.78  78.8739
 57.3796  6182.18  78.9467
 57.5776  6125.09  78.5146
 57.7756  6109.63  79.0522
 57.9736  6016.03  78.119
 58.1716  6136.3  79.1365
 58.3696  6075.5  78.4997
 58.5676  6151.51  78.4647
 58.7656  6155.9  79.1676
 58.9636  6215.46  79.5822
 59.1616  6231.95  79.8207
 59.3596  6180.79  78.749
 59.5576  6305.26  79.5956
 59.7556  6125.79  78.876
 59.9536  6176.21  79.0976
 60.1516  6259.82  80.4954
 60.1996  0.0000000E+00  0.0000000E+00