File: docs/examples/opeando_xrd/IS17_D/Data/IS17_D/17_Db_f00125.xye
# /beamlines/bl04/projects/cycle2025-II/20250340211-lsimonelli/DATA/IS17_D/17_Db_f00125.xye : mythproc.py merge -s 0.006 -l 0.5 -f /beamlines/bl04/inhouse/ff/FlatField/ff_20Nov2024rod8mm60s_17keV.raw -b True -c true -o xye /beamlines/bl04/projects/cycle2025-II/20250340211-lsimonelli/DATA/IS17_D/17_Db_00125.dat
# IsMon = [6744326, 6745294, 6752073]  IsPos = [-1.4999, -2.4884, -3.4988]
# Wave = 0.4962  CalPath /beamlines/bl04/projects/cycle2025-II/20250340211-lsimonelli/DATA/Align/Si_Pos1_25keV_f00001.cal
# Date = 2025-09-25_04:33:32 Dt = 4.8000  Bin = 0.0060  <imon> = 6747231 +/- 3447 (Min/Max) 6744326 / 6752073
# icurr 249.4504  mocoIn 1.7014E-05  mocoOut 0.7984  i15 7.06878e+06  imon 6.74723e+06  i7 4.3333  iEMpd_timer 4.8000  iEMpd_1 3.5188E-08  iEMpd_2 7.9140E-08  iEMpd_3 1.5854E-08  iEMpd_4 4.9080E-08  iEMhp_timer 4.8000  iEMhp_1 4.8733E-06  iEMhp_2 -2.5426E-08  iEMhp_3 -2.4819E-08  iEMhp_4 -2.1225E-08
#      9776
 1.7416  69573  263.9
 1.9396  48703.6  221.088
 2.1376  35845  189.663
 2.3356  31805.5  178.282
 2.5336  29678.3  172.823
 2.7316  26928.4  164.733
 2.9296  25929.2  161.802
 3.1276  25497.1  159.989
 3.3256  24730.2  157.22
 3.5236  26206  161.649
 3.7216  24113.8  156.294
 3.9196  23851.3  154.626
 4.1176  23566.7  153.508
 4.3156  24500.5  156.668
 4.5136  26797.8  162.841
 4.7116  27878.4  167.226
 4.9096  27277  164.844
 5.1076  27012.4  164.636
 5.3056  26957.8  164.169
 5.5036  27056  164.396
 5.7016  27315.7  165.135
 5.8996  27888.9  166.092
 6.0976  28809.3  170.235
 6.2956  28712.3  169.286
 6.4936  29692.5  171.344
 6.6916  29822.4  172.708
 6.8896  30659.9  174.969
 7.0876  31839.8  179.053
 7.2856  31637  177.523
 7.4836  31986.5  177.852
 7.6816  32808.4  180.646
 7.8796  33699.4  183.057
 8.0776  35311.4  188.378
 8.2756  36845.4  191.024
 8.4736  37538.8  192.642
 8.6716  36905.3  191.648
 8.8696  37492.6  193.663
 9.0676  36788  191.155
 9.2656  35756.7  189.158
 9.4636  34869.1  185.231
 9.6616  34284.8  184.401
 9.8596  33540.2  181.901
 10.0576  31506.5  176.974
 10.2556  30553.2  174.719
 10.4536  29850  172.297
 10.6516  29080.3  170.272
 10.8496  28015.4  166.497
 11.0476  26952.9  163.335
 11.2456  26504.3  162.513
 11.4436  27212.3  163.821
 11.6416  26239.3  161.205
 11.8396  25029.8  157.665
 12.0376  24494.2  155.585
 12.2356  24074  154.679
 12.4336  23912  153.692
 12.6316  24047.7  154.405
 12.8296  24172.1  154.406
 13.0276  24574.8  155.892
 13.2256  24490.3  156
 13.4236  24269.1  155.061
 13.6216  24718.5  156.499
 13.8196  26791.2  162.403
 14.0176  23831.6  153.727
 14.2156  23520.9  151.753
 14.4136  22230.2  148.906
 14.6116  21923.4  147.071
 14.8096  21252.5  144.78
 15.0076  20348.2  145.573
 15.2056  19428.9  138.042
 15.4036  18574.6  135.804
 15.6016  18310.2  133.923
 15.7996  17671.2  131.824
 15.9976  17386.7  133.676
 16.1956  17058.8  130.29
 16.3936  16894.9  128.837
 16.5916  16488.3  127.907
 16.7896  16406.9  127.669
 16.9876  16434  129.24
 17.1856  16042.6  126.096
 17.3836  15757.9  124.881
 17.5816  15530.7  124.463
 17.7796  15072.1  122.541
 17.9776  14782.6  122.107
 18.1756  14912.9  121.393
 18.3736  14669.3  120.886
 18.5716  14419.7  119.602
 18.7696  14489.4  119.459
 18.9676  14285.6  118.419
 19.1656  13946.7  117.569
 19.3636  13984.2  117.929
 19.5616  13989.7  118.124
 19.7596  14243.7  118.598
 19.9576  14657.7  120.335
 20.1556  13992.6  118.104
 20.3536  13602.4  115.84
 20.5516  13318  115.053
 20.7496  13202.1  114.488
 20.9476  13152.2  114.041
 21.1456  13026.3  113.806
 21.3436  12973.6  113.537
 21.5416  12831.6  112.922
 21.7396  12751.6  112.414
 21.9376  12588.2  111.456
 22.1356  12639  111.813
 22.3336  12436.9  111.195
 22.5316  12435.1  111.271
 22.7296  12415.1  110.548
 22.9276  12299.2  110.696
 23.1256  12445.8  110.82
 23.3236  12669.2  112.4
 23.5216  12738.3  112.337
 23.7196  12618.9  111.765
 23.9176  12440.6  110.735
 24.1156  12053.5  109.439
 24.3136  11941.6  109.761
 24.5116  12038.7  109.727
 24.7096  11704.4  108.01
 24.9076  11615.7  107.626
 25.1056  11309  106.658
 25.3036  11114  105.237
 25.5016  11126.8  105.334
 25.6996  10984.6  104.241
 25.8976  10995.5  104.721
 26.0956  10985.2  104.669
 26.2936  11012.9  104.481
 26.4916  11115.9  104.82
 26.6896  10819.5  103.717
 26.8876  10627.9  102.659
 27.0856  10515.6  102.165
 27.2836  10468.2  101.832
 27.4816  10347.5  101.177
 27.6796  10274.1  101.184
 27.8776  10444.5  101.88
 28.0756  10126.7  100.599
 28.2736  10088.4  99.9907
 28.4716  9902.85  99.1229
 28.6696  9990.3  99.4028
 28.8676  9738.21  98.4921
 29.0656  9747.12  98.5171
 29.2636  9783.22  98.4955
 29.4616  9430.6  96.8726
 29.6596  9421.1  96.3943
 29.8576  9262.72  96.2569
 30.0556  9348.07  96.5637
 30.2536  9479.54  97.0485
 30.4516  9576.66  97.1843
 30.6496  9487.24  96.4618
 30.8476  9610.49  97.5295
 31.0456  9495.29  96.9151
 31.2436  9458.43  95.9973
 31.4416  9225.27  95.0042
 31.6396  9360.33  95.7315
 31.8376  9443.31  95.6887
 32.0356  9419.04  96.1488
 32.2336  9327.23  95.0675
 32.4316  8906.45  93.2852
 32.6296  8922.44  93.211
 32.8276  9001.97  93.4051
 33.0256  8975.22  93.3342
 33.2236  9026.42  93.7448
 33.4216  8835.15  92.4214
 33.6196  8781.03  92.4425
 33.8176  8786.05  92.6402
 34.0156  8778.63  92.2185
 34.2136  8859.83  92.673
 34.4116  8611.82  91.525
 34.6096  8684.87  91.7967
 34.8076  8530.19  91.3907
 35.0056  8613.1  91.4997
 35.2036  8682.35  92.0945
 35.4016  8418.3  90.5931
 35.5996  8550  91.3396
 35.7976  8353.72  90.5573
 35.9956  8620.86  91.6343
 36.1936  8546.84  91.0926
 36.3916  8331.82  90.1359
 36.5896  8270.03  90.7921
 36.7876  8128.52  89.394
 36.9856  7950.96  88.4371
 37.1836  8069.23  88.1962
 37.3816  8031.95  88.3558
 37.5796  8093.16  90.4274
 37.7776  8250.09  89.6565
 37.9756  8092.27  88.6755
 38.1736  8188.04  89.3882
 38.3716  8114.86  89.2627
 38.5696  7969.52  88.8182
 38.7676  7964.42  88.3371
 38.9656  7961.64  87.9448
 39.1636  8000.03  88.4312
 39.3616  8000.73  88.37
 39.5596  7829.61  88.2227
 39.7576  7851.51  87.754
 39.9556  7931.91  87.8404
 40.1536  7963.36  88.2094
 40.3516  8061.73  88.7655
 40.5496  7956.15  88.4426
 40.7476  7984.19  88.5936
 40.9456  8015.03  88.522
 41.1436  8040.45  88.3871
 41.3416  7882.76  87.8427
 41.5396  7780.81  87.0829
 41.7376  7882.11  87.9117
 41.9356  7890.22  87.8188
 42.1336  8115.66  89.2069
 42.3316  7760.58  87.4304
 42.5296  7868.7  87.5498
 42.7276  7831.42  87.5915
 42.9256  7952.73  88.135
 43.1236  7785.82  87.3007
 43.3216  7802.58  87.1488
 43.5196  7699.54  86.6461
 43.7176  7826.27  87.7459
 43.9156  7436.46  85.4463
 44.1136  7681.59  86.3931
 44.3116  7649.47  86.2173
 44.5096  7564.22  86.05
 44.7076  7514.65  85.6954
 44.9056  7765.02  86.9805
 45.1036  7664.07  86.0332
 45.3016  7626.57  86.3268
 45.4996  7499.13  85.5454
 45.6976  7483.37  85.6268
 45.8956  7620.77  86.251
 46.0936  7575.1  86.0006
 46.2916  7582.67  86.0153
 46.4896  7747.86  86.9796
 46.6876  7592.67  86.8233
 46.8856  7563.95  85.8986
 47.0836  7415.09  85.3053
 47.2816  7411.29  85.1598
 47.4796  7397.46  85.1709
 47.6776  7310.01  85.6372
 47.8756  7347.27  85.0159
 48.0736  7459.52  86.1257
 48.2716  7309.31  85.0672
 48.4696  7528.17  85.9177
 48.6676  7493  86.3067
 48.8656  7422.13  85.6176
 49.0636  7379.41  85.3337
 49.2616  7285.65  84.8251
 49.4596  7389.6  84.9878
 49.6576  7329.82  84.867
 49.8556  7391.16  85.2416
 50.0536  7276.32  85.0295
 50.2516  7293.92  85.267
 50.4496  7285.58  84.873
 50.6476  7249.48  84.3327
 50.8456  7293.37  84.6681
 51.0436  7084.94  83.9
 51.2416  7068.93  83.4683
 51.4396  6872.36  82.7113
 51.6376  6985.53  83.2178
 51.8356  7029.96  83.0903
 52.0336  6997.45  83.3997
 52.2316  6970.81  83.6253
 52.4296  6936.53  83.1073
 52.6276  6849.37  82.6894
 52.8256  6948.12  82.8499
 53.0236  7057.59  84.1691
 53.2216  7042.33  84.1218
 53.4196  6978.4  83.6389
 53.6176  6962.73  84.0614
 53.8156  6892.17  83.2937
 54.0136  6632.56  81.857
 54.2116  6798.35  82.5179
 54.4096  6684.3  81.8906
 54.6076  6588.04  81.6467
 54.8056  6493.48  80.8383
 55.0036  6559.22  81.6518
 55.2016  6722.23  82.1618
 55.3996  6350.63  79.8584
 55.5976  6469.58  80.7859
 55.7956  6449.84  80.4799
 55.9936  6502.19  80.9327
 56.1916  6441.66  80.5947
 56.3896  6308.28  79.7202
 56.5876  6298.55  80.2372
 56.7856  6295.25  79.7045
 56.9836  6302.65  79.5258
 57.1816  6477.91  80.9845
 57.3796  6339.06  79.9302
 57.5776  6443.84  80.47
 57.7756  6207.33  79.6562
 57.9736  6204.55  79.2818
 58.1716  6159.45  79.2718
 58.3696  5923.55  77.5099
 58.5676  6033.98  77.6973
 58.7656  5969.75  77.948
 58.9636  5931.03  77.7178
 59.1616  6020.11  78.4399
 59.3596  6056.09  77.915
 59.5576  6010.05  77.6746
 59.7556  5965.7  77.803
 59.9536  5967.33  77.7131
 60.1516  6004.99  78.8041
 60.1996  0.0000000E+00  0.0000000E+00