File: docs/examples/opeando_xrd/IS17_D/Data/IS17_D/17_Db_f00098.xye
# /beamlines/bl04/projects/cycle2025-II/20250340211-lsimonelli/DATA/IS17_D/17_Db_f00098.xye : mythproc.py merge -s 0.006 -l 0.5 -f /beamlines/bl04/inhouse/ff/FlatField/ff_20Nov2024rod8mm60s_17keV.raw -b True -c true -o xye /beamlines/bl04/projects/cycle2025-II/20250340211-lsimonelli/DATA/IS17_D/17_Db_00098.dat
# IsMon = [6785271, 6780759, 6784652]  IsPos = [-1.4999, -2.4884, -3.4988]
# Wave = 0.4962  CalPath /beamlines/bl04/projects/cycle2025-II/20250340211-lsimonelli/DATA/Align/Si_Pos1_25keV_f00001.cal
# Date = 2025-09-24_21:00:32 Dt = 4.8000  Bin = 0.0060  <imon> = 6783561 +/- 1997 (Min/Max) 6780759 / 6785271
# icurr 252.4951  mocoIn 1.7221E-05  mocoOut 0.8081  i15 7.1081e+06  imon 6.78356e+06  i7 4.6667  iEMpd_timer 4.8000  iEMpd_1 3.3698E-08  iEMpd_2 7.7967E-08  iEMpd_3 1.6932E-08  iEMpd_4 4.8753E-08  iEMhp_timer 4.8000  iEMhp_1 4.9319E-06  iEMhp_2 -2.5149E-08  iEMhp_3 -2.4628E-08  iEMhp_4 -2.2288E-08
#      9776
 1.7416  71847.6  268.087
 1.9396  49127.8  221.97
 2.1376  36138  190.372
 2.3356  32820.7  181.043
 2.5336  30339.8  174.679
 2.7316  27984.3  167.907
 2.9296  26727.1  164.252
 3.1276  26080  161.779
 3.3256  25288.9  158.981
 3.5236  26739.9  163.274
 3.7216  24423.2  157.291
 3.9196  24011.7  155.161
 4.1176  23866.4  154.467
 4.3156  24868.5  157.851
 4.5136  27155  163.925
 4.7116  28499.9  169.075
 4.9096  27642  165.945
 5.1076  27249.1  165.337
 5.3056  27258.8  165.089
 5.5036  26974.9  164.155
 5.7016  27492.1  165.673
 5.8996  27904.7  166.138
 6.0976  28919.4  170.548
 6.2956  28952.9  170.003
 6.4936  29584.9  171.031
 6.6916  29915.8  172.981
 6.8896  30631.8  174.892
 7.0876  31497.5  178.09
 7.2856  31594.3  177.407
 7.4836  31906  177.615
 7.6816  32504.1  179.792
 7.8796  33580.2  182.771
 8.0776  34690.8  186.75
 8.2756  36323.9  189.709
 8.4736  37097.5  191.539
 8.6716  36236.8  189.93
 8.8696  37398.4  193.413
 9.0676  36172.9  189.541
 9.2656  35189.5  187.641
 9.4636  34226.3  183.527
 9.6616  33526.3  182.367
 9.8596  33047.8  180.529
 10.0576  30901.4  175.233
 10.2556  30138.6  173.504
 10.4536  29050.3  169.947
 10.6516  28395.7  168.231
 10.8496  27156.1  163.923
 11.0476  26497.1  161.949
 11.2456  25541.2  159.532
 11.4436  25806.1  159.529
 11.6416  26367  161.6
 11.8396  24759.8  156.791
 12.0376  23980.2  153.957
 12.2356  23598.3  153.144
 12.4336  23591.2  152.663
 12.6316  23664.3  153.153
 12.8296  23708.3  152.921
 13.0276  24092.3  154.366
 13.2256  24174.7  154.988
 13.4236  24156.7  154.703
 13.6216  24596.4  156.092
 13.8196  26638.2  161.864
 14.0176  23487.9  152.625
 14.2156  23230.9  150.806
 14.4136  22205  148.825
 14.6116  21714.1  146.366
 14.8096  21022.2  144
 15.0076  20169.5  144.929
 15.2056  19113.4  136.945
 15.4036  18244.9  134.615
 15.6016  17999.7  132.806
 15.7996  17381.8  130.773
 15.9976  17366.5  133.591
 16.1956  16985.4  129.973
 16.3936  16361.3  126.777
 16.5916  16405.7  127.597
 16.7896  16361.6  127.488
 16.9876  16207.9  128.355
 17.1856  15708.5  124.768
 17.3836  15613.5  124.29
 17.5816  15059.1  122.541
 17.7796  15007.6  122.261
 17.9776  14559.7  121.18
 18.1756  14567.5  119.975
 18.3736  14227.3  119.05
 18.5716  14154.7  118.501
 18.7696  14160.8  118.09
 18.9676  14082.4  117.553
 19.1656  13846.1  117.152
 19.3636  13821  117.247
 19.5616  13736.4  117.05
 19.7596  13870.1  117.018
 19.9576  14121.4  118.12
 20.1556  14432.4  119.949
 20.3536  13611.9  115.881
 20.5516  13310  115.017
 20.7496  13030.8  113.741
 20.9476  13027.1  113.488
 21.1456  12836.1  112.977
 21.3436  12918.8  113.29
 21.5416  12702.4  112.354
 21.7396  12565.2  111.586
 21.9376  12476.4  110.965
 22.1356  12488.3  111.147
 22.3336  12223.7  110.251
 22.5316  12492.1  111.544
 22.7296  12211.9  109.65
 22.9276  12141.4  110.002
 23.1256  12412.2  110.693
 23.3236  12781.4  112.892
 23.5216  12653.1  111.957
 23.7196  12342.7  110.528
 23.9176  12468.3  110.837
 24.1156  12176.1  109.993
 24.3136  11975.1  109.903
 24.5116  12023.8  109.634
 24.7096  11596  107.479
 24.9076  11410.2  106.652
 25.1056  11220.8  106.225
 25.3036  11037.5  104.872
 25.5016  10893  104.219
 25.6996  11052.2  104.554
 25.8976  11007.6  104.768
 26.0956  10756.9  103.597
 26.2936  10772.1  103.335
 26.4916  11061  104.552
 26.6896  10694.6  103.119
 26.8876  10685.4  102.922
 27.0856  10413.4  101.676
 27.2836  10258.5  100.804
 27.4816  10086.5  99.8878
 27.6796  10197.3  100.799
 27.8776  10291.5  101.114
 28.0756  9890.77  99.4287
 28.2736  9994.91  99.5302
 28.4716  9839.86  98.8005
 28.6696  9748.41  98.1963
 28.8676  9759.74  98.5995
 29.0656  9576.28  97.6378
 29.2636  9619.29  97.6629
 29.4616  9288.11  96.1544
 29.6596  9340.52  95.9988
 29.8576  9156.11  95.7129
 30.0556  9180.87  95.7227
 30.2536  9408.42  96.6998
 30.4516  9402.16  96.2956
 30.6496  9344.59  95.7374
 30.8476  9485.51  96.8943
 31.0456  9404.9  96.4479
 31.2436  9300.5  95.1711
 31.4416  9229.01  95.0056
 31.6396  9265.16  95.2302
 31.8376  9264.43  94.7535
 32.0356  9183.54  94.9096
 32.2336  9145.05  94.116
 32.4316  8881.09  93.1556
 32.6296  8898.35  93.0816
 32.8276  8892.16  92.837
 33.0256  8709.59  91.9323
 33.2236  8944.5  93.3089
 33.4216  8768.53  92.0758
 33.6196  8685.49  91.9309
 33.8176  8750.7  92.4474
 34.0156  8609.8  91.3277
 34.2136  8662.04  91.6183
 34.4116  8397.55  90.3889
 34.6096  8487.68  90.7463
 34.8076  8459.96  91.013
 35.0056  8449.6  90.6162
 35.2036  8674.3  92.0448
 35.4016  8344.08  90.197
 35.5996  8337.87  90.1973
 35.7976  8254.86  90.006
 35.9956  8435.64  90.6375
 36.1936  8352.76  90.041
 36.3916  8263.69  89.7664
 36.5896  8164.91  90.2097
 36.7876  7993.22  88.6593
 36.9856  7921.11  88.2757
 37.1836  7925.39  87.4302
 37.3816  7994.66  88.1682
 37.5796  7999.37  89.9037
 37.7776  8194.68  89.3412
 37.9756  8059.46  88.4823
 38.1736  7897.58  87.7839
 38.3716  7958.11  88.39
 38.5696  7976.73  88.8677
 38.7676  7873.51  87.8189
 38.9656  7887.35  87.5097
 39.1636  7962.41  88.2051
 39.3616  7912.46  87.8762
 39.5596  7823.41  88.2003
 39.7576  7738.24  87.1162
 39.9556  7728.89  86.7095
 40.1536  7927.26  88.0077
 40.3516  7872.76  87.7048
 40.5496  7935.39  88.3263
 40.7476  7892.54  88.0786
 40.9456  7843.51  87.5646
 41.1436  7913.81  87.6744
 41.3416  7845.44  87.6381
 41.5396  7792.77  87.1506
 41.7376  7798.51  87.4425
 41.9356  7784.49  87.224
 42.1336  7975.74  88.4274
 42.3316  7743.98  87.3428
 42.5296  7789.82  87.1071
 42.7276  7858.11  87.7359
 42.9256  7867.81  87.6694
 43.1236  7692.37  86.7821
 43.3216  7744.11  86.8249
 43.5196  7658.96  86.4044
 43.7176  7664.49  86.8355
 43.9156  7494.15  85.7873
 44.1136  7450.5  85.0977
 44.3116  7528.03  85.5497
 44.5096  7519.83  85.814
 44.7076  7466.63  85.4405
 44.9056  7708.74  86.6649
 45.1036  7519.45  85.2186
 45.3016  7506.06  85.6429
 45.4996  7517.08  85.6384
 45.6976  7300.26  84.5789
 45.8956  7501.42  85.5467
 46.0936  7531.84  85.7326
 46.2916  7529  85.6925
 46.4896  7485.81  85.4704
 46.6876  7508.34  86.338
 46.8856  7397.83  84.9539
 47.0836  7357.04  84.9612
 47.2816  7364.32  84.8939
 47.4796  7424.67  85.3437
 47.6776  7288.15  85.5031
 47.8756  7378.17  85.1991
 48.0736  7352.88  85.5055
 48.2716  7268.19  84.8349
 48.4696  7380.74  85.0706
 48.6676  7365.51  85.5834
 48.8656  7360.97  85.2682
 49.0636  7368.29  85.261
 49.2616  7301.61  84.9227
 49.4596  7319.76  84.5784
 49.6576  7201.74  84.1254
 49.8556  7251.37  84.4313
 50.0536  7213  84.6612
 50.2516  7235.89  84.9232
 50.4496  7188.17  84.3033
 50.6476  7331.85  84.807
 50.8456  7140.4  83.7744
 51.0436  6998.14  83.4006
 51.2416  6962.89  82.8598
 51.4396  6784.68  82.1968
 51.6376  6945.68  82.9895
 51.8356  6939.02  82.5645
 52.0336  6951.57  83.1366
 52.2316  6988.13  83.7193
 52.4296  6834.46  82.4979
 52.6276  6831.72  82.5904
 52.8256  6977.5  83.0213
 53.0236  7002.42  83.832
 53.2216  6903.53  83.2722
 53.4196  6808.01  82.5945
 53.6176  6957.98  84.0105
 53.8156  6870.12  83.1437
 54.0136  6570.97  81.4838
 54.2116  6775.27  82.3644
 54.4096  6563.65  81.1412
 54.6076  6521.81  81.226
 54.8056  6468.41  80.6685
 55.0036  6496.9  81.2751
 55.2016  6653.96  81.7368
 55.3996  6391.45  80.099
 55.5976  6436.5  80.5956
 55.7956  6352.86  79.8735
 55.9936  6527.14  81.0879
 56.1916  6368.62  80.1176
 56.3896  6197.83  79.0389
 56.5876  6297.23  80.2004
 56.7856  6264.45  79.4956
 56.9836  6276.51  79.3453
 57.1816  6334.41  80.079
 57.3796  6247.24  79.3512
 57.5776  6175.81  78.7863
 57.7756  6090.24  78.8944
 57.9736  6109.52  78.6658
 58.1716  6041.03  78.509
 58.3696  5938.97  77.6202
 58.5676  5877.56  76.6897
 58.7656  5898.22  77.488
 58.9636  5937.74  77.7675
 59.1616  5896.54  77.6447
 59.3596  5989.55  77.5057
 59.5576  5808.37  76.3814
 59.7556  5942.44  77.6728
 59.9536  5937.08  77.5375
 60.1516  5807.38  77.5182
 60.1996  0.0000000E+00  0.0000000E+00