File: docs/examples/opeando_xrd/IS17_D/Data/IS17_D/17_Db_f00081.xye
# /beamlines/bl04/projects/cycle2025-II/20250340211-lsimonelli/DATA/IS17_D/17_Db_f00081.xye : mythproc.py merge -s 0.006 -l 0.5 -f /beamlines/bl04/inhouse/ff/FlatField/ff_20Nov2024rod8mm60s_17keV.raw -b True -c true -o xye /beamlines/bl04/projects/cycle2025-II/20250340211-lsimonelli/DATA/IS17_D/17_Db_00081.dat
# IsMon = [6743523, 6740255, 6740564]  IsPos = [-1.4999, -2.4884, -3.4988]
# Wave = 0.4962  CalPath /beamlines/bl04/projects/cycle2025-II/20250340211-lsimonelli/DATA/Align/Si_Pos1_25keV_f00001.cal
# Date = 2025-09-24_16:16:08 Dt = 4.8000  Bin = 0.0060  <imon> = 6741447 +/- 1473 (Min/Max) 6740255 / 6743523
# icurr 248.8802  mocoIn 1.6973E-05  mocoOut 0.7963  i15 7.06301e+06  imon 6.74145e+06  i7 7.0000  iEMpd_timer 4.8000  iEMpd_1 3.2870E-08  iEMpd_2 7.8538E-08  iEMpd_3 1.6481E-08  iEMpd_4 4.7196E-08  iEMhp_timer 4.8000  iEMhp_1 4.8625E-06  iEMhp_2 -2.5190E-08  iEMhp_3 -2.3024E-08  iEMhp_4 -2.1008E-08
#      9776
 1.7416  69350.8  263.38
 1.9396  47349.7  217.901
 2.1376  34866.4  186.988
 2.3356  31253.6  176.663
 2.5336  29961.5  173.581
 2.7316  26440.3  163.198
 2.9296  25269.6  159.694
 3.1276  24831  157.835
 3.3256  24276.4  155.748
 3.5236  25710.7  160.088
 3.7216  23674  154.855
 3.9196  23235.4  152.633
 4.1176  23172.4  152.202
 4.3156  23969.1  154.976
 4.5136  26681.8  162.482
 4.7116  27553.4  166.254
 4.9096  26828.6  163.484
 5.1076  26347.3  162.577
 5.3056  26589.2  163.051
 5.5036  26346.8  162.226
 5.7016  26839.9  163.697
 5.8996  27304.2  164.341
 6.0976  28130.6  168.2
 6.2956  28343.7  168.207
 6.4936  29003.7  169.338
 6.6916  29273.9  171.113
 6.8896  30044.6  173.2
 7.0876  30997  176.668
 7.2856  30998.9  175.726
 7.4836  31338.8  176.044
 7.6816  32173  178.866
 7.8796  33091.7  181.432
 8.0776  35347.2  188.511
 8.2756  36365.1  189.833
 8.4736  36544.8  190.109
 8.6716  36010.4  189.326
 8.8696  36852.5  192.008
 9.0676  36313.6  189.925
 9.2656  34976.7  187.087
 9.4636  33803.2  182.407
 9.6616  33078.1  181.158
 9.8596  32481.9  178.96
 10.0576  30510.4  174.119
 10.2556  29865.9  172.705
 10.4536  31050.8  175.693
 10.6516  31343.3  176.734
 10.8496  27292.7  164.336
 11.0476  26750.2  162.717
 11.2456  27508.3  165.563
 11.4436  26233.4  160.838
 11.6416  25555.3  159.092
 11.8396  24315  155.382
 12.0376  23940.7  153.83
 12.2356  24350.7  155.564
 12.4336  23765.2  153.226
 12.6316  23314.1  152.012
 12.8296  23763.2  153.091
 13.0276  23825.8  153.512
 13.2256  23900.1  154.108
 13.4236  23877.4  153.808
 13.6216  24211.1  154.864
 13.8196  26499.7  161.472
 14.0176  23270.9  151.916
 14.2156  23003.7  150.071
 14.4136  21746.9  147.285
 14.6116  21680.4  146.263
 14.8096  20760  143.107
 15.0076  19971.1  144.219
 15.2056  18997  136.528
 15.4036  18206.5  134.476
 15.6016  17657.9  131.537
 15.7996  17292  130.44
 15.9976  16934.5  131.947
 16.1956  16691.2  128.88
 16.3936  16367.9  126.814
 16.5916  16236.5  126.945
 16.7896  16184.6  126.801
 16.9876  15971.7  127.416
 17.1856  15764.7  124.981
 17.3836  15527  123.937
 17.5816  15064.2  122.554
 17.7796  14903.2  121.825
 17.9776  14924.9  122.705
 18.1756  15255.7  122.778
 18.3736  15149.6  122.841
 18.5716  14402.1  119.521
 18.7696  14400.6  119.084
 18.9676  14121.1  117.707
 19.1656  13723.1  116.64
 19.3636  13579.6  116.218
 19.5616  13616.6  116.54
 19.7596  13999.8  117.559
 19.9576  14312.7  118.914
 20.1556  13579.2  116.352
 20.3536  13422.2  115.063
 20.5516  13117.8  114.187
 20.7496  12939.4  113.345
 20.9476  13064.8  113.651
 21.1456  13006  113.724
 21.3436  12775.8  112.662
 21.5416  12584.7  111.831
 21.7396  12446.1  111.057
 21.9376  12435  110.785
 22.1356  12576.1  111.528
 22.3336  12272.9  110.471
 22.5316  12241.1  110.418
 22.7296  12139  109.335
 22.9276  11932.9  109.056
 23.1256  12360.4  110.466
 23.3236  12400.3  111.203
 23.5216  12337.2  110.554
 23.7196  12342.1  110.535
 23.9176  12330.5  110.226
 24.1156  12011.2  109.258
 24.3136  11777.9  108.988
 24.5116  11906.9  109.106
 24.7096  11566.6  107.341
 24.9076  11536.2  107.233
 25.1056  11213.2  106.182
 25.3036  10912.9  104.277
 25.5016  10883.6  104.172
 25.6996  10947.2  104.062
 25.8976  11099.9  105.219
 26.0956  10816.3  103.877
 26.2936  10665.1  102.818
 26.4916  11023.4  104.39
 26.6896  10593.5  102.629
 26.8876  10558.8  102.314
 27.0856  10439.2  101.802
 27.2836  10131.4  100.174
 27.4816  10176  100.333
 27.6796  10096.2  100.295
 27.8776  10409.4  101.695
 28.0756  10005.3  100.003
 28.2736  9975.28  99.4295
 28.4716  9742.05  98.3131
 28.6696  9837.25  98.6456
 28.8676  9701.23  98.3045
 29.0656  9590.02  97.7159
 29.2636  9625.97  97.6957
 29.4616  9385.72  96.6569
 29.6596  9239.91  95.4817
 29.8576  9205.93  95.977
 30.0556  9348.15  96.594
 30.2536  9245.2  95.8541
 30.4516  9429.86  96.4361
 30.6496  9433.02  96.1883
 30.8476  9240.81  95.6444
 31.0456  9362.73  96.2306
 31.2436  9301.01  95.1809
 31.4416  9212.55  94.9176
 31.6396  9369.55  95.7602
 31.8376  9328.72  95.0732
 32.0356  9149.35  94.7401
 32.2336  9196.56  94.375
 32.4316  8849.38  92.9841
 32.6296  8761.84  92.3625
 32.8276  8824.8  92.4707
 33.0256  8749.64  92.1462
 33.2236  8771.66  92.3999
 33.4216  8801.44  92.2664
 33.6196  8609.89  91.5412
 33.8176  8727.97  92.333
 34.0156  8557.16  91.0514
 34.2136  8524.28  90.8934
 34.4116  8415.56  90.4849
 34.6096  8430.59  90.4412
 34.8076  8367.84  90.5164
 35.0056  8403.82  90.3812
 35.2036  8649.63  91.9099
 35.4016  8338.88  90.1721
 35.5996  8342.29  90.2218
 35.7976  8216.83  89.8074
 35.9956  8386.59  90.3839
 36.1936  8419.82  90.4103
 36.3916  8222.12  89.5436
 36.5896  8254.44  90.6977
 36.7876  7985.31  88.6167
 36.9856  7945.73  88.4244
 37.1836  8074.98  88.2528
 37.3816  7844.9  87.3428
 37.5796  7892.79  89.2944
 37.7776  8122.53  88.9554
 37.9756  8004.74  88.1845
 38.1736  8165.83  89.2696
 38.3716  7991.81  88.5723
 38.5696  7908.86  88.4908
 38.7676  7776.68  87.2701
 38.9656  7841.78  87.2674
 39.1636  7901.37  87.8619
 39.3616  7906.65  87.8355
 39.5596  7814.42  88.1463
 39.7576  7642.35  86.5744
 39.9556  7767.58  86.9239
 40.1536  7930.71  88.0257
 40.3516  7935.32  88.0641
 40.5496  7783.42  87.4582
 40.7476  7910.18  88.1828
 40.9456  7857.13  87.6479
 41.1436  7906.62  87.6396
 41.3416  7708.37  86.8695
 41.5396  7816.05  87.2837
 41.7376  7837.02  87.6556
 41.9356  7768.52  87.1292
 42.1336  7914.79  88.0868
 42.3316  7640.77  86.7594
 42.5296  7777.32  87.0445
 42.7276  7830.59  87.5908
 42.9256  7730.62  86.901
 43.1236  7531.14  85.8746
 43.3216  7751.81  86.8712
 43.5196  7595.09  86.0418
 43.7176  7756.63  87.3492
 43.9156  7380.56  85.14
 44.1136  7528.46  85.5433
 44.3116  7507.33  85.4345
 44.5096  7433.75  85.3234
 44.7076  7356.92  84.8117
 44.9056  7632.48  86.2415
 45.1036  7431.25  84.7232
 45.3016  7473.01  85.4533
 45.4996  7519.4  85.6656
 45.6976  7361.63  84.9415
 45.8956  7421.66  85.097
 46.0936  7568.83  85.9394
 46.2916  7412.95  85.0317
 46.4896  7394.63  84.9414
 46.6876  7349.65  85.4078
 46.8856  7323.05  84.5114
 47.0836  7251.38  84.3498
 47.2816  7267.45  84.3297
 47.4796  7296.22  84.6031
 47.6776  7219.57  85.0959
 47.8756  7278.28  84.6193
 48.0736  7319.11  85.3147
 48.2716  7215.97  84.5201
 48.4696  7469.14  85.5822
 48.6676  7243.66  84.8679
 48.8656  7260.27  84.6725
 49.0636  7336.82  85.0882
 49.2616  7093.72  83.7078
 49.4596  7278.07  84.3391
 49.6576  7116.71  83.6248
 49.8556  7077.97  83.416
 50.0536  7177.58  84.447
 50.2516  7161.03  84.4839
 50.4496  7278.13  84.823
 50.6476  7188.6  83.9768
 50.8456  7090.78  83.4728
 51.0436  6979.58  83.2924
 51.2416  6915.52  82.5805
 51.4396  6743.79  81.9482
 51.6376  6896.15  82.6867
 51.8356  6881.46  82.2157
 52.0336  6894.82  82.8066
 52.2316  6867.9  83.0073
 52.4296  6854.49  82.6277
 52.6276  6768.45  82.2169
 52.8256  6964.56  82.9488
 53.0236  6955.48  83.5404
 53.2216  6949.76  83.5474
 53.4196  6782.18  82.43
 53.6176  6830.55  83.2272
 53.8156  6700.14  82.1013
 54.0136  6631.05  81.8618
 54.2116  6731.58  82.1104
 54.4096  6508.72  80.8049
 54.6076  6473.75  80.9351
 54.8056  6427.08  80.4195
 55.0036  6417.79  80.7598
 55.2016  6645.98  81.7056
 55.3996  6318.54  79.6519
 55.5976  6382.14  80.2464
 55.7956  6339.53  79.7779
 55.9936  6437.61  80.5202
 56.1916  6235.67  79.2909
 56.3896  6211.28  79.1159
 56.5876  6289.02  80.161
 56.7856  6131.54  78.6636
 56.9836  6324.79  79.6411
 57.1816  6341.74  80.126
 57.3796  6188.61  78.9768
 57.5776  6181.06  78.8053
 57.7756  6148.92  79.2872
 57.9736  5987.46  77.893
 58.1716  6004.21  78.2737
 58.3696  5880.92  77.2361
 58.5676  5906.88  76.8835
 58.7656  5919.52  77.6365
 58.9636  5870.1  77.3423
 59.1616  5945.08  77.9603
 59.3596  5889.21  76.8664
 59.5576  5850.89  76.6716
 59.7556  5801.36  76.7564
 59.9536  5835.13  76.8801
 60.1516  5803.28  77.5021
 60.1996  0.0000000E+00  0.0000000E+00