File: docs/examples/opeando_xrd/IS17_D/Data/IS17_D/17_Da_f00048.xye
# /beamlines/bl04/projects/cycle2025-II/20250340211-lsimonelli/DATA/IS17_D/17_Da_f00048.xye : mythproc.py merge -s 0.006 -l 0.5 -f /beamlines/bl04/inhouse/ff/FlatField/ff_20Nov2024rod8mm60s_17keV.raw -b True -c true -o xye /beamlines/bl04/projects/cycle2025-II/20250340211-lsimonelli/DATA/IS17_D/17_Da_00048.dat
# IsMon = [6745291, 6745748, 6746774]  IsPos = [-1.4999, -2.4885, -3.4988]
# Wave = 0.4962  CalPath /beamlines/bl04/projects/cycle2025-II/20250340211-lsimonelli/DATA/Align/Si_Pos1_25keV_f00001.cal
# Date = 2025-09-24_06:56:18 Dt = 4.8000  Bin = 0.0060  <imon> = 6745938 +/- 620 (Min/Max) 6745291 / 6746774
# icurr 248.7630  mocoIn 1.6982E-05  mocoOut 0.7961  i15 7.06412e+06  imon 6.74594e+06  i7 5.0000  iEMpd_timer 4.8000  iEMpd_1 3.5630E-08  iEMpd_2 7.8681E-08  iEMpd_3 1.7045E-08  iEMpd_4 4.8270E-08  iEMhp_timer 4.8000  iEMhp_1 4.8621E-06  iEMhp_2 -2.4093E-08  iEMhp_3 -2.2356E-08  iEMhp_4 -2.0630E-08
#      9776
 1.7416  70716.2  266.014
 1.9396  47185.3  217.574
 2.1376  33992.9  184.667
 2.3356  30275  173.91
 2.5336  28176.1  168.364
 2.7316  26805.8  164.33
 2.9296  25681.5  161.017
 3.1276  24851.2  157.934
 3.3256  24452.4  156.324
 3.5236  26292.7  162.054
 3.7216  24000.2  155.932
 3.9196  23418.2  153.252
 4.1176  23269.9  152.535
 4.3156  24341.4  156.17
 4.5136  26775.8  162.77
 4.7116  27776.7  166.929
 4.9096  27395.9  165.205
 5.1076  26672.1  163.595
 5.3056  27133.9  164.732
 5.5036  26548.9  162.922
 5.7016  27140.6  164.615
 5.8996  27646.7  165.355
 6.0976  28459.9  169.215
 6.2956  29082.3  170.385
 6.4936  29996.1  172.223
 6.6916  30306  174.122
 6.8896  31133.6  176.338
 7.0876  31952.7  179.376
 7.2856  32138.3  178.941
 7.4836  32457  179.158
 7.6816  33361.7  182.18
 7.8796  34484.3  185.206
 8.0776  36135.2  190.581
 8.2756  38072  194.204
 8.4736  38433.9  194.93
 8.6716  38035.8  194.568
 8.8696  37886.2  194.666
 9.0676  36713.7  190.985
 9.2656  36174.1  190.279
 9.4636  35582.1  187.116
 9.6616  34667.6  185.468
 9.8596  33308.4  181.264
 10.0576  31508.4  176.969
 10.2556  30428.7  174.34
 10.4536  29331.2  170.774
 10.6516  28344.9  168.063
 10.8496  27742.1  165.686
 11.0476  26853  162.988
 11.2456  26210.7  161.602
 11.4436  26099.6  160.434
 11.6416  27583.6  165.305
 11.8396  25262.6  158.399
 12.0376  25001.2  157.195
 12.2356  24622.4  156.452
 12.4336  24419.8  155.32
 12.6316  24035.2  154.362
 12.8296  24513.7  155.528
 13.0276  24986.7  157.202
 13.2256  25170.2  158.143
 13.4236  24965.3  157.268
 13.6216  24985.8  157.352
 13.8196  25039.4  157.282
 14.0176  24541.6  156.006
 14.2156  23921.6  153.057
 14.4136  22821.2  150.878
 14.6116  22579.7  149.276
 14.8096  21817.7  146.72
 15.0076  20719.7  146.835
 15.2056  20279.9  141.053
 15.4036  19198.4  138.063
 15.6016  18895.5  136.057
 15.7996  18395.7  134.523
 15.9976  17690.8  134.899
 16.1956  17284.4  131.18
 16.3936  16772.5  128.397
 16.5916  16556.4  128.201
 16.7896  16413.3  127.707
 16.9876  16369.7  129.007
 17.1856  16282.1  127.016
 17.3836  15754.8  124.842
 17.5816  15325.9  123.622
 17.7796  15053.1  122.444
 17.9776  14739.8  121.952
 18.1756  14770.6  120.788
 18.3736  14486.8  120.132
 18.5716  14545.2  120.121
 18.7696  14372.3  118.977
 18.9676  14104.2  117.673
 19.1656  14063.5  118.055
 19.3636  14122.2  118.514
 19.5616  14046.9  118.365
 19.7596  14016.7  117.636
 19.9576  14224.1  118.561
 20.1556  14915.6  121.947
 20.3536  14282.7  118.687
 20.5516  13770  117.002
 20.7496  13460.7  115.617
 20.9476  13262.3  114.509
 21.1456  13257.1  114.818
 21.3436  13099  114.083
 21.5416  13113  114.149
 21.7396  12887.1  113.003
 21.9376  12864.5  112.668
 22.1356  12997.5  113.378
 22.3336  12813.1  112.846
 22.5316  12782.6  112.816
 22.7296  12786.5  112.202
 22.9276  12656.9  112.295
 23.1256  12821.7  112.502
 23.3236  12976.8  113.75
 23.5216  12578.1  111.642
 23.7196  12562  111.521
 23.9176  12588.9  111.388
 24.1156  12466.9  111.324
 24.3136  11919.3  109.646
 24.5116  12029.6  109.676
 24.7096  11599.2  107.514
 24.9076  11527.8  107.208
 25.1056  11330.5  106.478
 25.3036  11221.9  105.746
 25.5016  11198.9  105.669
 25.6996  11222  105.363
 25.8976  11044.5  104.964
 26.0956  10947  104.515
 26.2936  11003.7  104.433
 26.4916  11039.3  104.476
 26.6896  10928.2  104.248
 26.8876  10661.8  102.825
 27.0856  10745.5  103.236
 27.2836  10523.6  102.101
 27.4816  10488.5  101.866
 27.6796  10327.9  101.46
 27.8776  10213.7  100.752
 28.0756  10245.2  101.197
 28.2736  10209.9  100.604
 28.4716  10006.9  99.6448
 28.6696  9975.09  99.3327
 28.8676  9941.18  99.514
 29.0656  9861.24  99.0916
 29.2636  9804.94  98.5188
 29.4616  9735.63  98.4356
 29.6596  9853.24  98.589
 29.8576  9624.39  98.1244
 30.0556  9678.88  98.2793
 30.2536  9783.11  98.598
 30.4516  9509.86  96.8679
 30.6496  9527.74  96.6851
 30.8476  9553.4  97.2593
 31.0456  9410.86  96.4919
 31.2436  9387.17  95.6349
 31.4416  9310.95  95.43
 31.6396  9363.22  95.7452
 31.8376  9270.74  94.8188
 32.0356  9142.21  94.7213
 32.2336  9134.92  94.0717
 32.4316  9092.04  94.2561
 32.6296  9135.93  94.2512
 32.8276  9028.59  93.5406
 33.0256  8997.83  93.448
 33.2236  8925.61  93.2252
 33.4216  9115.62  93.899
 33.6196  9086.26  94.0442
 33.8176  8982.94  93.6702
 34.0156  8907.73  92.891
 34.2136  8816.19  92.4504
 34.4116  8793.42  92.4846
 34.6096  8712.11  91.9345
 34.8076  8685.18  92.1997
 35.0056  8538.35  91.1128
 35.2036  8624.14  91.7756
 35.4016  8671.01  91.9515
 35.5996  8577.65  91.4901
 35.7976  8409.27  90.8675
 35.9956  8642.36  91.757
 36.1936  8393.05  90.2899
 36.3916  8366.34  90.3226
 36.5896  8304.48  91.4286
 36.7876  8360.03  90.6648
 36.9856  8319.28  90.4689
 37.1836  8292.71  89.4243
 37.3816  8418.5  90.469
 37.5796  8252.68  91.3126
 37.7776  8108.34  88.8857
 37.9756  8163.03  89.0608
 38.1736  8233.67  89.6418
 38.3716  8088.4  89.1267
 38.5696  8047.42  89.2828
 38.7676  7803.33  87.4261
 38.9656  8026.48  88.2995
 39.1636  7945.38  88.0822
 39.3616  7970.84  88.1897
 39.5596  7884.65  88.5559
 39.7576  8001.26  88.5806
 39.9556  7969.61  88.0438
 40.1536  8106.62  89.0009
 40.3516  8046.56  88.6853
 40.5496  8092.9  88.9872
 40.7476  8036.09  88.8899
 40.9456  8052.4  88.7304
 41.1436  8048.77  88.4287
 41.3416  7917.75  88.0394
 41.5396  7932.41  87.9342
 41.7376  8022.37  88.697
 41.9356  7860.83  87.6572
 42.1336  8019.3  88.6857
 42.3316  7921.98  88.3412
 42.5296  7888.71  87.673
 42.7276  7870.48  87.813
 42.9256  7932.63  88.0291
 43.1236  7901.85  87.9662
 43.3216  7878.43  87.6906
 43.5196  7802.84  87.2297
 43.7176  7680.3  86.9268
 43.9156  7684.39  86.8656
 44.1136  7636.96  86.1485
 44.3116  7680.04  86.4017
 44.5096  7648.25  86.5371
 44.7076  7581.57  86.0884
 44.9056  7563.29  85.853
 45.1036  7603.73  85.7067
 45.3016  7446.58  85.3156
 45.4996  7431.4  85.1638
 45.6976  7360.19  84.9329
 45.8956  7381.62  84.8771
 46.0936  7456.57  85.3097
 46.2916  7523.49  85.6728
 46.4896  7430.06  85.1598
 46.6876  7261.99  84.9081
 46.8856  7249.97  84.099
 47.0836  7272.1  84.478
 47.2816  7184.41  83.8469
 47.4796  7215.48  84.1314
 47.6776  7011.16  83.8666
 47.8756  7137.32  83.7819
 48.0736  7149.9  84.3227
 48.2716  7024.16  83.397
 48.4696  7139.63  83.6748
 48.6676  7072.5  83.8593
 48.8656  7144.03  84.0087
 49.0636  7098.36  83.6952
 49.2616  6910.5  82.6059
 49.4596  6916.77  82.2157
 49.6576  6967.4  82.7336
 49.8556  7023.19  83.0928
 50.0536  6898.03  82.7955
 50.2516  6838.18  82.5361
 50.4496  6850.03  82.293
 50.6476  6809.84  81.7377
 50.8456  6841.52  82.0177
 51.0436  6729.12  81.7763
 51.2416  6613.96  80.7469
 51.4396  6601.77  81.0728
 51.6376  6645.17  81.1642
 51.8356  6574.93  80.3675
 52.0336  6442.33  80.0536
 52.2316  6512.26  80.8308
 52.4296  6607.54  81.1127
 52.6276  6444.58  80.2163
 52.8256  6625.64  80.8889
 53.0236  6430.39  80.3363
 53.2216  6388.4  80.1075
 53.4196  6288.32  79.4026
 53.6176  6320.72  80.0799
 53.8156  6406.01  80.2936
 54.0136  6302.8  79.8162
 54.2116  6334.61  79.6773
 54.4096  6365.99  79.9239
 54.6076  6357.24  80.2203
 54.8056  6277.81  79.5047
 55.0036  6261.09  79.7949
 55.2016  6341.2  79.8407
 55.3996  6351.7  79.8809
 55.5976  6223.13  79.2473
 55.7956  6354.15  79.8926
 55.9936  6197.77  79.0482
 56.1916  6199.41  79.0635
 56.3896  6259.52  79.4474
 56.5876  6214.89  79.7154
 56.7856  6190.55  79.0381
 56.9836  6113.79  78.3362
 57.1816  6198.96  79.2545
 57.3796  6195.91  79.0383
 57.5776  6261.47  79.3796
 57.7756  6241.76  79.9021
 57.9736  6202.28  79.3111
 58.1716  6199.58  79.5457
 58.3696  6117.52  78.7655
 58.5676  6192.18  78.7149
 58.7656  6136.01  79.031
 58.9636  6189.62  79.4125
 59.1616  6162.65  79.356
 59.3596  6277.79  79.3492
 59.5576  6226.61  79.0851
 59.7556  6260.72  79.7272
 59.9536  6114.02  78.6859
 60.1516  6055.9  79.1609
 60.1996  0.0000000E+00  0.0000000E+00