File: docs/examples/opeando_xrd/IS17_D/Data/IS17_D/17_Db_f00045.xye
# /beamlines/bl04/projects/cycle2025-II/20250340211-lsimonelli/DATA/IS17_D/17_Db_f00045.xye : mythproc.py merge -s 0.006 -l 0.5 -f /beamlines/bl04/inhouse/ff/FlatField/ff_20Nov2024rod8mm60s_17keV.raw -b True -c true -o xye /beamlines/bl04/projects/cycle2025-II/20250340211-lsimonelli/DATA/IS17_D/17_Db_00045.dat
# IsMon = [6749718, 6748208, 6746329]  IsPos = [-1.5000, -2.4885, -3.4988]
# Wave = 0.4962  CalPath /beamlines/bl04/projects/cycle2025-II/20250340211-lsimonelli/DATA/Align/Si_Pos1_25keV_f00001.cal
# Date = 2025-09-24_06:12:36 Dt = 4.8000  Bin = 0.0060  <imon> = 6748085 +/- 1386 (Min/Max) 6746329 / 6749718
# icurr 249.4967  mocoIn 1.7021E-05  mocoOut 0.7986  i15 7.06977e+06  imon 6.74808e+06  i7 3.3333  iEMpd_timer 4.8000  iEMpd_1 3.5229E-08  iEMpd_2 7.8803E-08  iEMpd_3 1.5914E-08  iEMpd_4 4.9310E-08  iEMhp_timer 4.8000  iEMhp_1 4.8743E-06  iEMhp_2 -2.5315E-08  iEMhp_3 -2.2826E-08  iEMhp_4 -2.1044E-08
#      9776
 1.7416  71299.8  267.065
 1.9396  49679.5  223.217
 2.1376  37002.4  192.637
 2.3356  33207.3  182.107
 2.5336  31175.9  177.07
 2.7316  28576.3  169.657
 2.9296  27423.5  166.363
 3.1276  26839.8  164.108
 3.3256  25656  160.106
 3.5236  27333.5  165.199
 3.7216  24970.8  159.049
 3.9196  24356.7  156.27
 4.1176  24153.7  155.394
 4.3156  25012.7  158.31
 4.5136  27424.5  164.725
 4.7116  28289.9  168.454
 4.9096  27679.1  166.053
 5.1076  27423.6  165.873
 5.3056  27158.7  164.804
 5.5036  27053.6  164.469
 5.7016  27228.2  164.876
 5.8996  27964.8  166.312
 6.0976  28671.8  169.815
 6.2956  28992.7  170.118
 6.4936  29703.5  171.378
 6.6916  30066.9  173.415
 6.8896  30898.7  175.648
 7.0876  32310.6  180.273
 7.2856  31918.5  178.313
 7.4836  32380.4  178.939
 7.6816  33108  181.46
 7.8796  33811.6  183.396
 8.0776  35269.2  188.3
 8.2756  37132.1  191.821
 8.4736  37376.8  192.257
 8.6716  36902.5  191.653
 8.8696  37922  194.783
 9.0676  36899.5  191.458
 9.2656  36051.4  189.941
 9.4636  34820.6  185.141
 9.6616  33798.1  183.132
 9.8596  33341.1  181.308
 10.0576  31140.5  175.893
 10.2556  30078.3  173.315
 10.4536  29199.7  170.351
 10.6516  28417.9  168.278
 10.8496  27169.8  163.971
 11.0476  26228.3  161.07
 11.2456  25764.3  160.219
 11.4436  25638.2  159.01
 11.6416  27127.5  163.908
 11.8396  25143.6  158.003
 12.0376  24328.7  155.057
 12.2356  24070.7  154.692
 12.4336  24072.8  154.216
 12.6316  23806.6  153.614
 12.8296  23811.8  153.256
 13.0276  24349  155.186
 13.2256  24885.3  157.249
 13.4236  24788.2  156.711
 13.6216  24843.8  156.87
 13.8196  27012.9  163.032
 14.0176  23922.3  154.026
 14.2156  23684.2  152.285
 14.4136  22515.6  149.864
 14.6116  22146.1  147.824
 14.8096  21461.3  145.509
 15.0076  20408.6  145.779
 15.2056  19496.1  138.312
 15.4036  18564.7  135.791
 15.6016  18273.1  133.81
 15.7996  17737  132.111
 15.9976  17528.5  134.217
 16.1956  16983.3  129.984
 16.3936  16636  127.861
 16.5916  16313.5  127.256
 16.7896  16444.4  127.81
 16.9876  16171.7  128.205
 17.1856  16162.9  126.541
 17.3836  15980.9  125.731
 17.5816  15391.2  123.873
 17.7796  14967.9  122.086
 17.9776  14466.6  120.798
 18.1756  14485.6  119.64
 18.3736  14169.3  118.8
 18.5716  14092.4  118.237
 18.7696  14153.4  118.053
 18.9676  14002.2  117.227
 19.1656  13739.7  116.705
 19.3636  13689.3  116.682
 19.5616  13577.8  116.372
 19.7596  13883.1  117.072
 19.9576  13959.6  117.441
 20.1556  14420  119.9
 20.3536  14514.9  119.659
 20.5516  13647.6  116.469
 20.7496  13329.7  114.949
 20.9476  13070.1  113.676
 21.1456  13031.3  113.833
 21.3436  12941  113.383
 21.5416  12695.9  112.324
 21.7396  12703.7  112.201
 21.9376  12618.9  111.604
 22.1356  12819.4  112.754
 22.3336  12383.7  110.948
 22.5316  12337  110.849
 22.7296  12462.2  110.775
 22.9276  12428.8  111.297
 23.1256  12285.2  110.138
 23.3236  12728.7  112.672
 23.5216  12742.5  112.365
 23.7196  12582.9  111.824
 23.9176  12509.6  111.034
 24.1156  12421.7  111.107
 24.3136  12058.7  110.27
 24.5116  12064.2  109.817
 24.7096  11660.7  107.777
 24.9076  11576.9  107.411
 25.1056  11300.2  106.327
 25.3036  11029.3  104.83
 25.5016  10940.9  104.445
 25.6996  11109.6  104.833
 25.8976  10948.1  104.496
 26.0956  10867.7  104.123
 26.2936  10912.7  103.999
 26.4916  11197.1  105.215
 26.6896  10711.9  103.202
 26.8876  10787.5  103.414
 27.0856  10497.1  102.041
 27.2836  10407.4  101.533
 27.4816  10258.3  100.734
 27.6796  10242  101.029
 27.8776  10368.5  101.496
 28.0756  10083  100.391
 28.2736  10065.2  99.8831
 28.4716  9948.9  99.3564
 28.6696  9910.11  99.009
 28.8676  9826.27  98.9409
 29.0656  9671.27  98.1271
 29.2636  9840.06  98.6924
 29.4616  9412.61  96.7962
 29.6596  9368.81  96.1428
 29.8576  9288.99  96.4093
 30.0556  9239.74  96.0354
 30.2536  9307.46  96.1804
 30.4516  9471.24  96.6577
 30.6496  9467.82  96.378
 30.8476  9316.32  96.0366
 31.0456  9597.66  97.4343
 31.2436  9513.84  96.2715
 31.4416  9317.12  95.4492
 31.6396  9198.95  94.8837
 31.8376  9392.51  95.3965
 32.0356  9332.02  95.6479
 32.2336  9176.65  94.2664
 32.4316  8893.38  93.2158
 32.6296  9047.81  93.7907
 32.8276  9025.3  93.5259
 33.0256  8860.26  92.733
 33.2236  8935.92  93.2621
 33.4216  8871.48  92.6239
 33.6196  8828.94  92.6908
 33.8176  8874.68  93.0991
 34.0156  8725.1  91.9379
 34.2136  8824.14  92.4797
 34.4116  8634.39  91.6525
 34.6096  8667.22  91.7011
 34.8076  8590.44  91.7109
 35.0056  8466.16  90.7188
 35.2036  8796.54  92.6942
 35.4016  8519.58  91.1471
 35.5996  8461.11  90.8626
 35.7976  8281.97  90.1595
 35.9956  8575.36  91.3942
 36.1936  8406.55  90.3445
 36.3916  8330.38  90.1279
 36.5896  8415.17  92.0481
 36.7876  8079.84  89.1396
 36.9856  8027.92  88.8781
 37.1836  8004.43  87.8634
 37.3816  8030.12  88.3676
 37.5796  8081.15  90.3595
 37.7776  8258  89.695
 37.9756  8111.79  88.775
 38.1736  8166.59  89.2797
 38.3716  8099.92  89.1783
 38.5696  7924  88.5781
 38.7676  7969.2  88.338
 38.9656  7963.8  87.9401
 39.1636  8109.79  88.9867
 39.3616  7961.63  88.133
 39.5596  7762.02  87.8569
 39.7576  7858.34  87.789
 39.9556  7970.42  88.0513
 40.1536  8056.68  88.7191
 40.3516  7914.21  87.9511
 40.5496  7928.06  88.0647
 40.7476  7968.43  88.5068
 40.9456  8034.3  88.6177
 41.1436  8154.46  88.9987
 41.3416  7889.22  87.8851
 41.5396  7890.22  87.6983
 41.7376  7860.3  87.7891
 41.9356  7809.69  87.3573
 42.1336  8009.05  88.6045
 42.3316  7788.81  87.5967
 42.5296  7838.72  87.388
 42.7276  7912.63  88.0472
 42.9256  7796.76  87.2686
 43.1236  7751.45  87.1188
 43.3216  7863.98  87.6
 43.5196  7771.41  87.0436
 43.7176  7738.23  87.2479
 43.9156  7517.26  85.9213
 44.1136  7566.53  85.755
 44.3116  7615.84  86.0453
 44.5096  7665.8  86.6425
 44.7076  7635.14  86.3986
 44.9056  7662.55  86.4154
 45.1036  7628.61  85.8458
 45.3016  7604.21  86.204
 45.4996  7526.31  85.7053
 45.6976  7490.64  85.6879
 45.8956  7570.36  85.9381
 46.0936  7641.38  86.0941
 46.2916  7615.86  86.1833
 46.4896  7597.61  86.1124
 46.6876  7533.52  86.4639
 46.8856  7481.28  85.4328
 47.0836  7435.3  85.4191
 47.2816  7330.17  84.6922
 47.4796  7453.71  85.4997
 47.6776  7285.3  85.4893
 47.8756  7375.38  85.1754
 48.0736  7508.75  86.4156
 48.2716  7311.33  85.0818
 48.4696  7477.49  85.6289
 48.6676  7469.83  86.1869
 48.8656  7427.64  85.6582
 49.0636  7445.29  85.7026
 49.2616  7271.81  84.7492
 49.4596  7439.15  85.2581
 49.6576  7214.18  84.1946
 49.8556  7299.96  84.7131
 50.0536  7408.34  85.7993
 50.2516  7296.19  85.2544
 50.4496  7261.99  84.73
 50.6476  7330.81  84.8057
 50.8456  7226.04  84.2721
 51.0436  7113.75  84.0872
 51.2416  7083.93  83.5803
 51.4396  6927.91  83.0594
 51.6376  6972.27  83.1443
 51.8356  7137.2  83.7373
 52.0336  7155.15  84.3566
 52.2316  6971.41  83.6241
 52.4296  6964.5  83.2935
 52.6276  6938.06  83.2422
 52.8256  7004.01  83.1867
 53.0236  7033.44  84.0049
 53.2216  6888.48  83.1536
 53.4196  6929.65  83.3138
 53.6176  6993.84  84.226
 53.8156  6930.57  83.5021
 54.0136  6715.95  82.3877
 54.2116  6904.83  83.147
 54.4096  6691.26  81.938
 54.6076  6698.1  82.306
 54.8056  6470.21  80.6948
 55.0036  6753.1  82.7037
 55.2016  6506.32  80.743
 55.3996  6508.48  80.8411
 55.5976  6520.09  81.1031
 55.7956  6482.52  80.6742
 55.9936  6671.92  81.9807
 56.1916  6492.02  80.9136
 56.3896  6311.21  79.7525
 56.5876  6309.14  80.2819
 56.7856  6369.8  80.1705
 56.9836  6432.85  80.3321
 57.1816  6452.42  80.8222
 57.3796  6314.45  79.7825
 57.5776  6276.57  79.4239
 57.7756  6181.73  79.4942
 57.9736  6208.36  79.317
 58.1716  6129  79.0892
 58.3696  5992.25  77.9626
 58.5676  6056.81  77.8416
 58.7656  6035.16  78.39
 58.9636  5998.89  78.18
 59.1616  5961.13  78.0668
 59.3596  6059.09  77.9722
 59.5576  6049.78  77.969
 59.7556  6052.32  78.4041
 59.9536  6080.82  78.487
 60.1516  6028.26  78.9952
 60.1996  0.0000000E+00  0.0000000E+00