File: docs/examples/opeando_xrd/IS17_D/Data/IS17_D/17_Db_f00065.xye
# /beamlines/bl04/projects/cycle2025-II/20250340211-lsimonelli/DATA/IS17_D/17_Db_f00065.xye : mythproc.py merge -s 0.006 -l 0.5 -f /beamlines/bl04/inhouse/ff/FlatField/ff_20Nov2024rod8mm60s_17keV.raw -b True -c true -o xye /beamlines/bl04/projects/cycle2025-II/20250340211-lsimonelli/DATA/IS17_D/17_Db_00065.dat
# IsMon = [6761414, 6762487, 6765539]  IsPos = [-1.5000, -2.4885, -3.4988]
# Wave = 0.4962  CalPath /beamlines/bl04/projects/cycle2025-II/20250340211-lsimonelli/DATA/Align/Si_Pos1_25keV_f00001.cal
# Date = 2025-09-24_11:48:32 Dt = 4.8000  Bin = 0.0060  <imon> = 6763147 +/- 1747 (Min/Max) 6761414 / 6765539
# icurr 250.4588  mocoIn 1.7091E-05  mocoOut 0.8021  i15 7.08608e+06  imon 6.76315e+06  i7 4.6667  iEMpd_timer 4.8000  iEMpd_1 3.2041E-08  iEMpd_2 7.8825E-08  iEMpd_3 1.6134E-08  iEMpd_4 4.6920E-08  iEMhp_timer 4.8000  iEMhp_1 4.8933E-06  iEMhp_2 -2.5430E-08  iEMhp_3 -2.4867E-08  iEMhp_4 -2.1359E-08
#      9776
 1.7416  69915.8  264.526
 1.9396  48174  219.862
 2.1376  34772.8  186.789
 2.3356  31362.4  177.02
 2.5336  29736.7  172.978
 2.7316  26603.8  163.723
 2.9296  25531.2  160.543
 3.1276  24849.1  157.932
 3.3256  24187.5  155.471
 3.5236  26158  161.637
 3.7216  23777.4  155.2
 3.9196  23294.2  152.821
 4.1176  23301.3  152.633
 4.3156  24036.5  155.183
 4.5136  26791.4  162.818
 4.7116  27634.4  166.491
 4.9096  26917.4  163.754
 5.1076  26558.2  163.242
 5.3056  26498.8  162.767
 5.5036  26253.5  162.018
 5.7016  26780.8  163.515
 5.8996  27158.6  163.903
 6.0976  28080.9  168.069
 6.2956  28195.1  167.755
 6.4936  29127.6  169.699
 6.6916  29280.9  171.139
 6.8896  30303.6  173.952
 7.0876  31554.6  178.159
 7.2856  31170.1  176.212
 7.4836  31650.3  176.914
 7.6816  32269.5  179.146
 7.8796  33252.1  181.855
 8.0776  35552.1  189.03
 8.2756  36824.3  190.99
 8.4736  37072.7  191.448
 8.6716  36477.2  190.534
 8.8696  37710.8  194.235
 9.0676  36533.4  190.502
 9.2656  35239.9  187.791
 9.4636  34381.3  183.946
 9.6616  33603  182.585
 9.8596  33103.2  180.687
 10.0576  31159.1  175.977
 10.2556  30257.1  173.861
 10.4536  31102.2  175.857
 10.6516  30684.6  174.885
 10.8496  27460  164.839
 11.0476  26919.3  163.185
 11.2456  27394  165.215
 11.4436  26927.7  162.956
 11.6416  25612.5  159.268
 11.8396  24739.9  156.739
 12.0376  24177.1  154.571
 12.2356  24480  155.995
 12.4336  24183.8  154.572
 12.6316  23682.6  153.223
 12.8296  23986.4  153.82
 13.0276  24115.7  154.429
 13.2256  23995.9  154.411
 13.4236  24148.2  154.677
 13.6216  24473  155.711
 13.8196  26863.5  162.593
 14.0176  23538.6  152.783
 14.2156  23331.5  151.131
 14.4136  22075.6  148.392
 14.6116  21727  146.42
 14.8096  20885.6  143.536
 15.0076  20020.1  144.396
 15.2056  19139.2  137.022
 15.4036  18304.1  134.819
 15.6016  17860.8  132.276
 15.7996  17596.3  131.559
 15.9976  17160.7  132.809
 16.1956  16841.3  129.466
 16.3936  16520.6  127.4
 16.5916  16515.5  128.035
 16.7896  16560.9  128.268
 16.9876  16232.2  128.442
 17.1856  15876.9  125.429
 17.3836  15370.3  123.325
 17.5816  15066.2  122.573
 17.7796  15110.4  122.686
 17.9776  14821.3  122.26
 18.1756  15231.4  122.679
 18.3736  15055.3  122.462
 18.5716  14386.2  119.459
 18.7696  14417.3  119.151
 18.9676  14189.5  118.008
 19.1656  14007  117.829
 19.3636  13747.8  116.931
 19.5616  13850.3  117.535
 19.7596  14165.7  118.267
 19.9576  14771.6  120.809
 20.1556  13544  116.186
 20.3536  13393.3  114.94
 20.5516  13253.8  114.777
 20.7496  13088.8  113.921
 20.9476  13250.1  114.462
 21.1456  13031.2  113.831
 21.3436  12821.6  112.864
 21.5416  12717.2  112.419
 21.7396  12523.9  111.404
 21.9376  12545.7  111.272
 22.1356  12720.1  112.324
 22.3336  12355.7  110.809
 22.5316  12366  110.965
 22.7296  12311.8  110.09
 22.9276  12168.7  110.106
 23.1256  12443.3  110.824
 23.3236  12451.3  111.433
 23.5216  12400  110.843
 23.7196  12452.9  111.252
 23.9176  12480.2  110.908
 24.1156  12266.4  110.414
 24.3136  11714.7  108.705
 24.5116  11963.5  109.374
 24.7096  11648  107.741
 24.9076  11513.9  107.149
 25.1056  11162.6  105.693
 25.3036  11031  104.842
 25.5016  10947.8  104.48
 25.6996  10958.4  104.118
 25.8976  11041.1  104.939
 26.0956  10854.8  104.059
 26.2936  10862.2  103.761
 26.4916  11025.1  104.377
 26.6896  10715.4  103.227
 26.8876  10586.5  102.456
 27.0856  10375.7  101.446
 27.2836  10346.4  101.233
 27.4816  10311.6  100.999
 27.6796  10194.8  100.79
 27.8776  10498.7  102.146
 28.0756  10139.3  100.665
 28.2736  10087.3  99.9901
 28.4716  9831.65  98.7688
 28.6696  9976.58  99.3386
 28.8676  9726.37  98.4315
 29.0656  9638.45  97.9617
 29.2636  9705.17  98.0172
 29.4616  9368.65  96.5585
 29.6596  9364.65  96.1088
 29.8576  9170.05  95.7783
 30.0556  9250.93  96.0754
 30.2536  9232.4  95.7799
 30.4516  9491.43  96.7656
 30.6496  9582.66  96.9393
 30.8476  9391.44  96.4264
 31.0456  9519.68  97.0433
 31.2436  9436.05  95.8833
 31.4416  9238.07  95.0535
 31.6396  9489.4  96.3777
 31.8376  9275.98  94.8146
 32.0356  9180.61  94.8926
 32.2336  9240.17  94.6126
 32.4316  8888.55  93.1932
 32.6296  8935.5  93.2056
 32.8276  8984.89  93.3146
 33.0256  8756.88  92.1848
 33.2236  8903.24  93.0978
 33.4216  8837.75  92.4405
 33.6196  8780.6  92.4372
 33.8176  8798.37  92.6953
 34.0156  8725.75  91.9442
 34.2136  8752.55  92.1113
 34.4116  8537  91.1283
 34.6096  8505.35  90.8393
 34.8076  8443.92  90.9254
 35.0056  8372.35  90.2132
 35.2036  8617.68  91.7506
 35.4016  8371  90.3399
 35.5996  8429.7  90.695
 35.7976  8249.83  89.9888
 35.9956  8419.7  90.5661
 36.1936  8490.88  90.785
 36.3916  8290.24  89.9092
 36.5896  8338.11  91.6327
 36.7876  8030.41  88.8559
 36.9856  7913.24  88.2327
 37.1836  7937.71  87.4858
 37.3816  8006.41  88.2223
 37.5796  7999.13  89.8969
 37.7776  8063.45  88.6314
 37.9756  8101.51  88.7326
 38.1736  8202.17  89.4667
 38.3716  8050.98  88.9138
 38.5696  7931.22  88.6218
 38.7676  7835.96  87.6104
 38.9656  7889.11  87.5372
 39.1636  7957.84  88.1651
 39.3616  8026.86  88.5067
 39.5596  7819.45  88.1791
 39.7576  7886.15  87.9424
 39.9556  7839.96  87.3285
 40.1536  8034.87  88.6036
 40.3516  7877.48  87.7411
 40.5496  7891.08  87.8648
 40.7476  7952.55  88.4237
 40.9456  8031.76  88.6113
 41.1436  7937.76  87.8165
 41.3416  7800.09  87.383
 41.5396  7813.52  87.2716
 41.7376  7906.19  88.0462
 41.9356  7796.58  87.2831
 42.1336  8046.45  88.8282
 42.3316  7806.36  87.6844
 42.5296  7818.57  87.2774
 42.7276  7877.58  87.8507
 42.9256  7795.77  87.2635
 43.1236  7813.97  87.4684
 43.3216  7770.18  87.0723
 43.5196  7656.22  86.3872
 43.7176  7707.6  87.0825
 43.9156  7549.03  86.0941
 44.1136  7525.3  85.5133
 44.3116  7524.58  85.5197
 44.5096  7522.57  85.8199
 44.7076  7506.22  85.656
 44.9056  7619.39  86.1693
 45.1036  7580.66  85.5723
 45.3016  7531.89  85.7963
 45.4996  7632.45  86.3079
 45.6976  7458.65  85.494
 45.8956  7465  85.358
 46.0936  7551.22  85.6051
 46.2916  7588.14  86.0425
 46.4896  7565.61  85.9361
 46.6876  7420.52  85.8303
 46.8856  7454.61  85.2798
 47.0836  7430.4  85.3964
 47.2816  7321.78  84.6427
 47.4796  7352.15  84.9244
 47.6776  7275.5  85.4391
 47.8756  7364.91  85.1248
 48.0736  7419.62  85.8975
 48.2716  7296.04  84.9877
 48.4696  7358.74  84.94
 48.6676  7403.51  85.8081
 48.8656  7454.96  85.8183
 49.0636  7381.18  85.343
 49.2616  7240.81  84.5629
 49.4596  7364.52  84.837
 49.6576  7253.22  84.4185
 49.8556  7329.4  84.8833
 50.0536  7281.96  85.0439
 50.2516  7245.53  84.9635
 50.4496  7192.88  84.3292
 50.6476  7164.35  83.8335
 50.8456  7318.28  84.8181
 51.0436  7093.33  83.9564
 51.2416  6945.45  82.7428
 51.4396  6805.98  82.3143
 51.6376  6979.85  83.1841
 51.8356  6943.53  82.582
 52.0336  6991.06  83.3816
 52.2316  6993.77  83.7592
 52.4296  6884.27  82.8017
 52.6276  6869.73  82.8256
 52.8256  7004.7  83.1886
 53.0236  7033.75  84.02
 53.2216  7005.25  83.8629
 53.4196  6767.11  82.3549
 53.6176  7006.65  84.3143
 53.8156  6888.65  83.2629
 54.0136  6638.47  81.9019
 54.2116  6794.39  82.4971
 54.4096  6700.63  81.9978
 54.6076  6587.66  81.6368
 54.8056  6543.47  81.1519
 55.0036  6596.45  81.7449
 55.2016  6531.13  80.9128
 55.3996  6322.32  79.6777
 55.5976  6440.26  80.6035
 55.7956  6428.34  80.3482
 55.9936  6540.91  81.1879
 56.1916  6401.68  80.3429
 56.3896  6255.33  79.3874
 56.5876  6229.49  79.7912
 56.7856  6212.67  79.1643
 56.9836  6358.66  79.8749
 57.1816  6431.65  80.708
 57.3796  6223.12  79.1935
 57.5776  6258.14  79.2988
 57.7756  6225.2  79.7748
 57.9736  6131.05  78.8166
 58.1716  6070.16  78.7058
 58.3696  5951.56  77.6898
 58.5676  5987.76  77.3827
 58.7656  5961.09  77.8965
 58.9636  6005.76  78.2204
 59.1616  5977.25  78.165
 59.3596  5920.15  77.0482
 59.5576  6066.97  78.0557
 59.7556  5913.73  77.4774
 59.9536  5872.77  77.109
 60.1516  5826.55  77.6385
 60.1996  0.0000000E+00  0.0000000E+00