File: docs/examples/opeando_xrd/IS17_D/Data/IS17_D/17_Db_f00020.xye
# /beamlines/bl04/projects/cycle2025-II/20250340211-lsimonelli/DATA/IS17_D/17_Db_f00020.xye : mythproc.py merge -s 0.006 -l 0.5 -f /beamlines/bl04/inhouse/ff/FlatField/ff_20Nov2024rod8mm60s_17keV.raw -b True -c true -o xye /beamlines/bl04/projects/cycle2025-II/20250340211-lsimonelli/DATA/IS17_D/17_Db_00020.dat
# IsMon = [6732410, 6738334, 6763936]  IsPos = [-1.5000, -2.4885, -3.4986]
# Wave = 0.4962  CalPath /beamlines/bl04/projects/cycle2025-II/20250340211-lsimonelli/DATA/Align/Si_Pos1_25keV_f00001.cal
# Date = 2025-09-23_23:16:50 Dt = 4.8000  Bin = 0.0060  <imon> = 6744893 +/- 13681 (Min/Max) 6732410 / 6763936
# icurr 249.1184  mocoIn 1.7006E-05  mocoOut 0.7977  i15 7.06202e+06  imon 6.74489e+06  i7 4.0000  iEMpd_timer 4.8000  iEMpd_1 3.5469E-08  iEMpd_2 7.8328E-08  iEMpd_3 1.7604E-08  iEMpd_4 4.7293E-08  iEMhp_timer 4.8000  iEMhp_1 4.8762E-06  iEMhp_2 -2.4875E-08  iEMhp_3 -2.3606E-08  iEMhp_4 -2.0231E-08
#      9776
 1.7416  68233.2  261.532
 1.9396  46880.7  217.065
 2.1376  34070.6  185.041
 2.3356  30386.4  174.383
 2.5336  29965.5  173.781
 2.7316  26151  162.421
 2.9296  24704.2  158.025
 3.1276  24127.4  155.724
 3.3256  23400.7  153.007
 3.5236  25257.3  158.912
 3.7216  23009.8  152.665
 3.9196  22776.1  151.118
 4.1176  22660.9  150.553
 4.3156  23467.9  153.294
 4.5136  26234.4  161.135
 4.7116  27070  164.793
 4.9096  26129.8  161.34
 5.1076  25868.6  161.143
 5.3056  26235.7  161.859
 5.5036  25428.3  159.33
 5.7016  26091.4  161.399
 5.8996  26468.4  161.806
 6.0976  27361.5  165.939
 6.2956  27426.9  165.433
 6.4936  28382.3  167.519
 6.6916  28314.8  168.29
 6.8896  29394.4  171.319
 7.0876  30555.5  175.36
 7.2856  30079.3  173.108
 7.4836  30490  173.64
 7.6816  31109.7  175.895
 7.8796  31998.3  178.319
 8.0776  35007.7  187.501
 8.2756  35641.6  187.769
 8.4736  35844.4  188.175
 8.6716  34898.6  186.344
 8.8696  36172.1  190.191
 9.0676  35312  187.258
 9.2656  33605.8  183.358
 9.4636  32567.9  178.934
 9.6616  31997.7  178.071
 9.8596  31291.3  175.783
 10.0576  29367  170.92
 10.2556  28704.3  169.441
 10.4536  30504.9  174.261
 10.6516  31472.8  177.229
 10.8496  26084.5  160.652
 11.0476  25457.6  158.709
 11.2456  27039  164.158
 11.4436  25148.1  157.485
 11.6416  24759.4  156.588
 11.8396  23563  152.992
 12.0376  22903.1  150.421
 12.2356  23800.8  153.824
 12.4336  23339.9  151.847
 12.6316  22485.6  149.328
 12.8296  22804.8  149.981
 13.0276  22947.5  150.626
 13.2256  23258.8  152.026
 13.4236  23082.4  151.222
 13.6216  23572.6  152.848
 13.8196  26017.4  160
 14.0176  22567.6  149.571
 14.2156  22365  147.975
 14.4136  21012.5  144.779
 14.6116  20748.3  143.087
 14.8096  19968.9  140.305
 15.0076  19316.7  141.881
 15.2056  18394.6  134.275
 15.4036  17322.9  131.106
 15.6016  17135.7  129.511
 15.7996  16827.6  128.565
 15.9976  16496.7  130.173
 16.1956  16206.8  126.96
 16.3936  15919.3  125.041
 16.5916  15770.2  125.085
 16.7896  15616.6  124.536
 16.9876  15526.9  125.665
 17.1856  15237.4  122.945
 17.3836  14831.9  121.221
 17.5816  14399.9  119.902
 17.7796  14466  120.112
 17.9776  14433.3  120.649
 18.1756  14966.3  121.603
 18.3736  15059.9  122.488
 18.5716  13762.3  116.846
 18.7696  13866.7  116.856
 18.9676  13525.8  115.24
 19.1656  13236.9  114.511
 19.3636  13161.4  114.425
 19.5616  13221.1  114.836
 19.7596  13434.7  115.192
 19.9576  13788.8  116.725
 20.1556  13260  114.95
 20.3536  12825.1  112.48
 20.5516  12537.8  111.639
 20.7496  12498.1  111.341
 20.9476  12761.4  112.353
 21.1456  12694.9  112.331
 21.3436  12260.8  110.375
 21.5416  12143.6  109.855
 21.7396  12070.4  109.368
 21.9376  12013.7  108.893
 22.1356  12380.6  110.689
 22.3336  11954.5  108.951
 22.5316  11898.6  108.805
 22.7296  11908.8  108.233
 22.9276  11644.9  107.669
 23.1256  12177.6  109.562
 23.3236  12185.5  110.215
 23.5216  12069.7  109.328
 23.7196  11959.8  109.042
 23.9176  11956.7  108.576
 24.1156  11764.4  108.101
 24.3136  11698.7  108.695
 24.5116  11510.4  107.338
 24.7096  11281.4  106.091
 24.9076  11062.8  105.103
 25.1056  10890.6  104.454
 25.3036  10601.4  102.792
 25.5016  10628.5  102.945
 25.6996  10666.8  102.714
 25.8976  10735.2  103.499
 26.0956  10526.8  102.448
 26.2936  10420.7  101.641
 26.4916  10626.2  102.486
 26.6896  10352.5  101.46
 26.8876  10275.2  100.957
 27.0856  10128.4  100.245
 27.2836  9922.06  99.2618
 27.4816  9993.94  99.4352
 27.6796  9810.63  98.8794
 27.8776  10203  100.72
 28.0756  9739.16  98.6418
 28.2736  9672.68  97.9177
 28.4716  9509.78  97.1428
 28.6696  9626.51  97.5788
 28.8676  9373.54  96.6308
 29.0656  9246.97  95.9543
 29.2636  9277.81  95.857
 29.4616  9097.28  95.1123
 29.6596  9100.43  94.7073
 29.8576  8847.82  94.0425
 30.0556  9081.84  95.1285
 30.2536  9076.54  94.9255
 30.4516  9126.62  94.8694
 30.6496  9012.82  94.0096
 30.8476  9032.66  94.5407
 31.0456  9069.24  94.7358
 31.2436  9112.09  94.2353
 31.4416  8835.67  93.0251
 31.6396  9173.89  94.8326
 31.8376  8939.78  93.1478
 32.0356  8944.09  93.724
 32.2336  8906.8  92.9571
 32.4316  8579.29  91.5647
 32.6296  8558.43  91.2167
 32.8276  8626.85  91.4422
 33.0256  8509.38  90.8684
 33.2236  8570.64  91.3635
 33.4216  8515.49  90.7103
 33.6196  8430.2  90.586
 33.8176  8487.59  91.0433
 34.0156  8343.34  89.9019
 34.2136  8397.03  90.2386
 34.4116  8261.78  89.6338
 34.6096  8270.43  89.5803
 34.8076  8138.17  89.2666
 35.0056  8128.1  88.8906
 35.2036  8432.01  90.7801
 35.4016  8144.86  89.095
 35.5996  8081.38  88.7984
 35.7976  8032.6  88.7927
 35.9956  8223.68  89.4995
 36.1936  8198.21  89.219
 36.3916  7914.82  87.8514
 36.5896  8105.01  90.3599
 36.7876  7816.74  87.6305
 36.9856  7689.48  86.9401
 37.1836  7768.95  86.5162
 37.3816  7700.14  86.4602
 37.5796  7732.68  88.3925
 37.7776  7801.6  87.1954
 37.9756  7817.32  87.1718
 38.1736  7848.33  87.4952
 38.3716  7931.63  88.2274
 38.5696  7708.64  87.3607
 38.7676  7496.12  85.7458
 38.9656  7698.56  86.5192
 39.1636  7562.24  86.0009
 39.3616  7718.69  86.8357
 39.5596  7512.07  86.432
 39.7576  7650.94  86.6254
 39.9556  7632.85  86.1645
 40.1536  7788.1  87.2215
 40.3516  7562.37  86.0306
 40.5496  7683.27  86.7004
 40.7476  7654.86  86.7432
 40.9456  7679.62  86.6524
 41.1436  7799.86  87.0706
 41.3416  7548.8  85.9507
 41.5396  7513.58  85.5771
 41.7376  7610.27  86.3793
 41.9356  7522.52  85.7442
 42.1336  7775.58  87.3301
 42.3316  7447.51  85.6408
 42.5296  7591.85  86.0023
 42.7276  7650.83  86.5744
 42.9256  7482.06  85.4885
 43.1236  7388.08  85.0545
 43.3216  7519.62  85.6568
 43.5196  7467.98  85.3453
 43.7176  7480.27  85.7831
 43.9156  7204.18  84.0724
 44.1136  7216.17  83.7052
 44.3116  7321.15  84.2996
 44.5096  7335.02  84.71
 44.7076  7176.73  83.7202
 44.9056  7415.66  84.9913
 45.1036  7396.16  84.5083
 45.3016  7243.2  84.1203
 45.4996  7323.72  84.5251
 45.6976  7214.44  84.0372
 45.8956  7289.55  84.3949
 46.0936  7228.39  83.8104
 46.2916  7335.31  84.6492
 46.4896  7298.26  84.4718
 46.6876  7206.38  84.6329
 46.8856  7106.62  83.3534
 47.0836  7262.21  84.4393
 47.2816  7045.3  83.0402
 47.4796  7083.92  83.3617
 47.6776  7048.95  84.0962
 47.8756  7059.65  83.3426
 48.0736  7082.61  83.9189
 48.2716  7056.13  83.5685
 48.4696  7217.63  84.1263
 48.6676  7069.43  83.8411
 48.8656  7138.78  83.9817
 49.0636  7225.27  84.4572
 49.2616  6941.65  82.7837
 49.4596  7069.92  83.1254
 49.6576  7004.56  82.9642
 49.8556  6943.57  82.6201
 50.0536  7026.52  83.5549
 50.2516  6995.53  83.4876
 50.4496  6971.04  83.0253
 50.6476  6966.26  82.6698
 50.8456  6973.56  82.7952
 51.0436  6687.79  81.4878
 51.2416  6702.32  81.2285
 51.4396  6690.39  81.5797
 51.6376  6741.63  81.7429
 51.8356  6843.38  81.974
 52.0336  6750.12  81.9207
 52.2316  6647.52  81.6497
 52.4296  6652.34  81.3515
 52.6276  6613.43  81.2193
 52.8256  6678.5  81.2092
 53.0236  6738.61  82.2919
 53.2216  6708.48  82.1167
 53.4196  6667  81.7967
 53.6176  6718.68  82.6172
 53.8156  6582.4  81.4447
 54.0136  6372.75  80.2188
 54.2116  6482.75  80.5934
 54.4096  6351.06  79.8342
 54.6076  6275.44  79.6764
 54.8056  6214.75  79.0814
 55.0036  6342.33  80.1808
 55.2016  6274.49  79.3099
 55.3996  6136.97  78.4869
 55.5976  6306.8  79.7695
 55.7956  6267.4  79.3341
 55.9936  6318.68  79.7976
 56.1916  6293.42  79.6607
 56.3896  5965.82  77.5183
 56.5876  6068.86  78.7294
 56.7856  6114.84  78.5576
 56.9836  6136.96  78.4853
 57.1816  6165.88  79.0324
 57.3796  5963.8  77.4836
 57.5776  6100.16  78.3037
 57.7756  5980.89  78.1902
 57.9736  5961.25  77.7394
 58.1716  5894.69  77.5343
 58.3696  5752.37  76.3717
 58.5676  5801.1  76.1772
 58.7656  5658.95  75.8674
 58.9636  5793.25  76.7887
 59.1616  5747.54  76.6148
 59.3596  5771.75  75.9787
 59.5576  5786  76.1329
 59.7556  5658.56  75.6941
 59.9536  5704.71  75.904
 60.1516  5700.43  76.699
 60.1996  0.0000000E+00  0.0000000E+00