File: docs/examples/opeando_xrd/IS17_D/Data/IS17_D/17_Da_f00136.xye
# /beamlines/bl04/projects/cycle2025-II/20250340211-lsimonelli/DATA/IS17_D/17_Da_f00136.xye : mythproc.py merge -s 0.006 -l 0.5 -f /beamlines/bl04/inhouse/ff/FlatField/ff_20Nov2024rod8mm60s_17keV.raw -b True -c true -o xye /beamlines/bl04/projects/cycle2025-II/20250340211-lsimonelli/DATA/IS17_D/17_Da_00136.dat
# IsMon = [6764487, 6767949, 6763649]  IsPos = [-1.4999, -2.4884, -3.4989]
# Wave = 0.4962  CalPath /beamlines/bl04/projects/cycle2025-II/20250340211-lsimonelli/DATA/Align/Si_Pos1_25keV_f00001.cal
# Date = 2025-09-25_07:27:20 Dt = 4.8000  Bin = 0.0060  <imon> = 6765362 +/- 1861 (Min/Max) 6763649 / 6767949
# icurr 250.8435  mocoIn 1.7107E-05  mocoOut 0.8023  i15 7.08387e+06  imon 6.76536e+06  i7 5.6667  iEMpd_timer 4.8000  iEMpd_1 3.4554E-08  iEMpd_2 7.9908E-08  iEMpd_3 1.8911E-08  iEMpd_4 4.8720E-08  iEMhp_timer 4.8000  iEMhp_1 4.8990E-06  iEMhp_2 -2.5518E-08  iEMhp_3 -2.4723E-08  iEMhp_4 -2.0248E-08
#      9776
 1.7416  69493.1  263.708
 1.9396  45631.7  213.969
 2.1376  32118.4  179.507
 2.3356  28752.2  169.483
 2.5336  27099.3  165.118
 2.7316  25249.2  159.471
 2.9296  23769  154.89
 3.1276  23397.5  153.237
 3.3256  23278.8  152.506
 3.5236  25296.4  158.781
 3.7216  23017.7  152.706
 3.9196  22693.8  150.864
 4.1176  22388.7  149.619
 4.3156  23682.6  154.049
 4.5136  26472  161.837
 4.7116  27120.4  164.946
 4.9096  26589.1  162.76
 5.1076  26175.1  162.063
 5.3056  26612.9  163.149
 5.5036  26508.9  162.71
 5.7016  26745.5  163.412
 5.8996  27422.6  164.684
 6.0976  28281.4  168.683
 6.2956  28605  168.981
 6.4936  29413.9  170.548
 6.6916  29619.6  172.138
 6.8896  30550  174.676
 7.0876  31599.8  178.383
 7.2856  31333  176.687
 7.4836  32037.1  177.995
 7.6816  32960.4  181.079
 7.8796  34073  184.097
 8.0776  36839.9  192.424
 8.2756  38116.7  194.33
 8.4736  38600.4  195.357
 8.6716  38124.9  194.781
 8.8696  38154  195.373
 9.0676  37100.8  192.012
 9.2656  35912.6  189.608
 9.4636  35641  187.286
 9.6616  34660.1  185.465
 9.8596  33445.9  181.618
 10.0576  31673.1  177.403
 10.2556  30926.1  175.745
 10.4536  31808.6  177.823
 10.6516  32001.2  178.574
 10.8496  28482.9  167.886
 11.0476  27860.3  166.066
 11.2456  28381.2  168.155
 11.4436  27850  165.723
 11.6416  26583.9  162.277
 11.8396  25140.3  158.012
 12.0376  25121.7  157.6
 12.2356  25004.3  157.627
 12.4336  24680.1  156.144
 12.6316  24136.1  154.687
 12.8296  24536.6  155.6
 13.0276  25080.2  157.498
 13.2256  24860.8  157.176
 13.4236  24882.6  156.997
 13.6216  24735.2  156.56
 13.8196  25020.2  157.223
 14.0176  24166.3  154.699
 14.2156  23725.3  152.42
 14.4136  22553.9  149.989
 14.6116  22145.5  147.832
 14.8096  21659.6  146.193
 15.0076  20488.9  146.006
 15.2056  19927.8  139.822
 15.4036  19272.3  138.331
 15.6016  18620.1  135.058
 15.7996  18340.1  134.328
 15.9976  17566.3  135.005
 16.1956  17107.5  130.52
 16.3936  16770.4  128.402
 16.5916  16524  128.091
 16.7896  16619.5  128.514
 16.9876  16282.5  128.659
 17.1856  16016.9  125.964
 17.3836  15457.2  123.646
 17.5816  15304.9  123.523
 17.7796  15331.8  123.565
 17.9776  15193.4  123.82
 18.1756  15692.3  124.499
 18.3736  15632.3  124.774
 18.5716  14793.8  121.143
 18.7696  14883.1  121.075
 18.9676  14407.5  118.931
 19.1656  14383.5  119.397
 19.3636  14286.2  119.192
 19.5616  14210.5  119.049
 19.7596  14433.1  119.368
 19.9576  14875.1  121.243
 20.1556  14036.6  118.297
 20.3536  13724.9  116.349
 20.5516  13487  115.792
 20.7496  13237.9  114.657
 20.9476  13400.1  115.108
 21.1456  13522  115.955
 21.3436  13165.6  114.378
 21.5416  13030  113.779
 21.7396  12910.3  113.105
 21.9376  13033.2  113.416
 22.1356  13006.4  113.409
 22.3336  13061.2  113.943
 22.5316  12774.6  112.777
 22.7296  12751.1  112.043
 22.9276  12788.8  112.884
 23.1256  13144.6  113.914
 23.3236  12774.6  112.866
 23.5216  12761.8  112.464
 23.7196  12556.1  111.492
 23.9176  12461.5  110.834
 24.1156  12304.6  110.608
 24.3136  12007.2  110.039
 24.5116  11941.9  109.267
 24.7096  11852.6  108.674
 24.9076  11484.8  107.003
 25.1056  11193  106.095
 25.3036  11219.5  105.729
 25.5016  11173.5  105.552
 25.6996  11273.8  105.603
 25.8976  11130.6  105.368
 26.0956  11302  106.201
 26.2936  11132.4  105.037
 26.4916  11298.9  105.702
 26.6896  10846.7  103.86
 26.8876  10753.8  103.267
 27.0856  10762.9  103.371
 27.2836  10478  101.883
 27.4816  10576.7  102.298
 27.6796  10490.4  102.256
 27.8776  10504.8  102.181
 28.0756  10425.1  102.08
 28.2736  10273.9  100.917
 28.4716  9953.3  99.3783
 28.6696  10083.2  99.8722
 28.8676  9948.51  99.5495
 29.0656  9838.42  98.9729
 29.2636  9846.14  98.806
 29.4616  9791.73  98.718
 29.6596  9849.12  98.5685
 29.8576  9645.97  98.2355
 30.0556  9703.31  98.4087
 30.2536  9784.39  98.6048
 30.4516  9772.63  98.2062
 30.6496  9632.51  97.2238
 30.8476  9556.34  97.2809
 31.0456  9513.25  97.0227
 31.2436  9454.21  95.9867
 31.4416  9205.75  94.8787
 31.6396  9489.12  96.377
 31.8376  9355.92  95.2452
 32.0356  9180.09  94.9073
 32.2336  9171.28  94.2497
 32.4316  9094.29  94.2605
 32.6296  9017.83  93.7032
 32.8276  9199.73  94.4184
 33.0256  9064.67  93.8035
 33.2236  8983.07  93.5254
 33.4216  9000.68  93.3086
 33.6196  9116.85  94.1974
 33.8176  9037.35  93.9446
 34.0156  8856.7  92.6232
 34.2136  8871.22  92.7419
 34.4116  8767.22  92.3494
 34.6096  8804.48  92.4198
 34.8076  8599.46  91.7523
 35.0056  8630.53  91.6044
 35.2036  8640.84  91.8691
 35.4016  8584.55  91.4885
 35.5996  8665.76  91.9588
 35.7976  8536.47  91.5485
 35.9956  8552.62  91.2701
 36.1936  8584.56  91.3178
 36.3916  8416.97  90.5936
 36.5896  8356.4  91.2367
 36.7876  8542.11  91.6482
 36.9856  8297.64  90.3515
 37.1836  8216.02  89.0106
 37.3816  8360.28  90.1623
 37.5796  8137.27  90.6738
 37.7776  8247.95  89.6491
 37.9756  8124.9  88.8615
 38.1736  8312.4  90.0833
 38.3716  8318.21  90.3934
 38.5696  8168.18  89.9448
 38.7676  7868.24  87.7782
 38.9656  7958.9  87.9201
 39.1636  7949.53  88.1374
 39.3616  8050.24  88.6177
 39.5596  7952.76  88.9457
 39.7576  7907.68  88.0585
 39.9556  7930.2  87.8257
 40.1536  8170.17  89.3563
 40.3516  8131.6  89.1456
 40.5496  8101.04  89.2413
 40.7476  8129.47  89.4013
 40.9456  8101.33  88.9987
 41.1436  8131.67  88.8857
 41.3416  8058.57  88.8213
 41.5396  7964.48  88.1115
 41.7376  8013.14  88.6457
 41.9356  8008.59  88.4763
 42.1336  7972.16  88.4216
 42.3316  7887.27  88.1493
 42.5296  8019.23  88.3933
 42.7276  8014.16  88.6094
 42.9256  7973.16  88.2506
 43.1236  7776.65  87.2658
 43.3216  7944.16  87.9538
 43.5196  7811.85  87.2756
 43.7176  7691.97  86.9976
 43.9156  7610.24  86.4412
 44.1136  7633.34  86.1278
 44.3116  7698  86.5109
 44.5096  7603.61  86.2824
 44.7076  7498.55  85.6147
 44.9056  7591.56  86.0221
 45.1036  7527.28  85.2835
 45.3016  7462.67  85.4153
 45.4996  7459.48  85.3363
 45.6976  7425.78  85.3206
 45.8956  7433.89  85.1663
 46.0936  7443.94  85.2234
 46.2916  7339.77  84.6074
 46.4896  7444.2  85.2471
 46.6876  7291.85  85.0773
 46.8856  7230.68  83.984
 47.0836  7302.93  84.6527
 47.2816  7141.28  83.5847
 47.4796  7256.02  84.37
 47.6776  7132.21  84.5732
 47.8756  7193.21  84.116
 48.0736  7174.76  84.4738
 48.2716  6969.5  83.0706
 48.4696  7072.1  83.2757
 48.6676  7053.05  83.7421
 48.8656  7092.74  83.7067
 49.0636  7033.32  83.3062
 49.2616  6928.15  82.7151
 49.4596  7050.99  83.0123
 49.6576  7014.73  83.0236
 49.8556  6865.83  82.1533
 50.0536  6858.05  82.5509
 50.2516  6897.86  82.9263
 50.4496  6845.52  82.2598
 50.6476  6807.25  81.7226
 50.8456  6739.31  81.3932
 51.0436  6712.46  81.6721
 51.2416  6647.6  80.962
 51.4396  6572.63  80.8898
 51.6376  6610.7  80.95
 51.8356  6652.53  80.8377
 52.0336  6527.18  80.5773
 52.2316  6632.3  81.58
 52.4296  6649.64  81.3755
 52.6276  6682.11  81.6844
 52.8256  6577.97  80.605
 53.0236  6437.95  80.3775
 53.2216  6433.9  80.385
 53.4196  6405.59  80.1256
 53.6176  6237.1  79.5416
 53.8156  6410.07  80.304
 54.0136  6506.86  81.095
 54.2116  6377.33  79.9417
 54.4096  6362.1  79.8978
 54.6076  6237.11  79.4592
 54.8056  6272.6  79.4731
 55.0036  6272.35  79.8611
 55.2016  6339.22  79.8851
 55.3996  6315.99  79.6555
 55.5976  6312.7  79.8187
 55.7956  6387.66  80.1124
 55.9936  6274.89  79.5309
 56.1916  6252.09  79.4075
 56.3896  6274.54  79.5399
 56.5876  6193.12  79.5753
 56.7856  6300.28  79.7362
 56.9836  6151.86  78.572
 57.1816  6194.37  79.1268
 57.3796  6230.61  79.2555
 57.5776  6266.7  79.414
 57.7756  6163.58  79.3936
 57.9736  6100.54  78.6643
 58.1716  6216.15  79.6524
 58.3696  6085.27  78.5544
 58.5676  6265.55  79.1791
 58.7656  6271.87  79.9035
 58.9636  6255.98  79.8366
 59.1616  6249.6  79.9184
 59.3596  6387.07  80.0546
 59.5576  6345.46  79.8513
 59.7556  6135.02  78.9377
 59.9536  6232.87  79.4619
 60.1516  6265.99  80.5375
 60.1996  6344.47  84.265