File: docs/examples/opeando_xrd/IS17_D/Data/IS17_D/17_Da_f00077.xye
# /beamlines/bl04/projects/cycle2025-II/20250340211-lsimonelli/DATA/IS17_D/17_Da_f00077.xye : mythproc.py merge -s 0.006 -l 0.5 -f /beamlines/bl04/inhouse/ff/FlatField/ff_20Nov2024rod8mm60s_17keV.raw -b True -c true -o xye /beamlines/bl04/projects/cycle2025-II/20250340211-lsimonelli/DATA/IS17_D/17_Da_00077.dat
# IsMon = [6786550, 6788084, 6791041]  IsPos = [-1.4999, -2.4884, -3.4988]
# Wave = 0.4962  CalPath /beamlines/bl04/projects/cycle2025-II/20250340211-lsimonelli/DATA/Align/Si_Pos1_25keV_f00001.cal
# Date = 2025-09-24_15:01:20 Dt = 4.8000  Bin = 0.0060  <imon> = 6788558 +/- 1864 (Min/Max) 6786550 / 6791041
# icurr 252.2823  mocoIn 1.7208E-05  mocoOut 0.8067  i15 7.10334e+06  imon 6.78856e+06  i7 8.0000  iEMpd_timer 4.8000  iEMpd_1 3.3927E-08  iEMpd_2 7.7953E-08  iEMpd_3 1.5876E-08  iEMpd_4 4.7113E-08  iEMhp_timer 4.8000  iEMhp_1 4.9268E-06  iEMhp_2 -2.5471E-08  iEMhp_3 -2.4931E-08  iEMhp_4 -2.1676E-08
#      9776
 1.7416  68958.8  262.714
 1.9396  45023.1  212.552
 2.1376  31775.4  178.561
 2.3356  28137.1  167.674
 2.5336  28195.6  168.439
 2.7316  24851  158.234
 2.9296  23752  154.859
 3.1276  23298.2  152.923
 3.3256  22775.8  150.874
 3.5236  24759.2  157.116
 3.7216  22517.1  151.035
 3.9196  22542.5  150.357
 4.1176  22167.1  148.879
 4.3156  23456.5  153.301
 4.5136  26343  161.451
 4.7116  27035  164.686
 4.9096  26615.5  162.845
 5.1076  25920  161.275
 5.3056  26322.6  162.244
 5.5036  26157.8  161.638
 5.7016  26342.5  162.176
 5.8996  27054.9  163.574
 6.0976  27791.8  167.22
 6.2956  28185.1  167.73
 6.4936  28899.6  169.042
 6.6916  29346.2  171.342
 6.8896  30235.5  173.777
 7.0876  31213.2  177.289
 7.2856  31000.7  175.749
 7.4836  31814.9  177.376
 7.6816  32402.3  179.539
 7.8796  33885.7  183.584
 8.0776  38680.5  197.169
 8.2756  38120.8  194.316
 8.4736  38054.3  193.965
 8.6716  37399.4  192.932
 8.8696  38093.3  195.197
 9.0676  37098.2  191.983
 9.2656  35367.1  188.134
 9.4636  34951.7  185.434
 9.6616  34102.9  183.939
 9.8596  32765.6  179.792
 10.0576  31217.6  176.152
 10.2556  29927.5  172.906
 10.4536  33413.1  182.282
 10.6516  36482.5  190.699
 10.8496  27826.3  165.928
 11.0476  27698.1  165.582
 11.2456  30671.6  174.819
 11.4436  26802.5  162.576
 11.6416  26130.7  160.889
 11.8396  24855.3  157.122
 12.0376  24497.2  155.615
 12.2356  26422.2  162.037
 12.4336  25006.4  157.179
 12.6316  23667  153.174
 12.8296  24428.6  155.257
 13.0276  24934  157.03
 13.2256  24504.3  156.043
 13.4236  24563.3  156.001
 13.6216  24404.1  155.511
 13.8196  25216.6  157.839
 14.0176  24147.8  154.732
 14.2156  23688.9  152.309
 14.4136  22245.5  148.965
 14.6116  21954  147.194
 14.8096  21339.8  145.098
 15.0076  20559.2  146.274
 15.2056  19932.4  139.831
 15.4036  18906.1  137.02
 15.6016  18383.7  134.193
 15.7996  18297.2  134.151
 15.9976  17300.9  133.387
 16.1956  17065.1  130.345
 16.3936  16521.8  127.432
 16.5916  16497.2  127.971
 16.7896  16546.2  128.218
 16.9876  16304.7  128.751
 17.1856  16089.1  126.267
 17.3836  15182.9  122.564
 17.5816  15124.3  122.814
 17.7796  15133.4  122.779
 17.9776  15282.1  124.172
 18.1756  16140  126.26
 18.3736  16168.1  126.909
 18.5716  14698.7  120.758
 18.7696  14663.5  120.179
 18.9676  14332.3  118.624
 19.1656  14222.5  118.725
 19.3636  14034  118.139
 19.5616  14141.9  118.757
 19.7596  14117.8  118.061
 19.9576  14691.5  120.497
 20.1556  13829.5  117.422
 20.3536  13678.9  116.16
 20.5516  13423.2  115.519
 20.7496  13078.4  113.964
 20.9476  13482.6  115.461
 21.1456  13681.9  116.643
 21.3436  13001  113.652
 21.5416  13076.6  113.983
 21.7396  12731  112.31
 21.9376  12901.5  112.822
 22.1356  13099.6  113.824
 22.3336  13059.5  113.942
 22.5316  12933.6  113.47
 22.7296  12688.8  111.751
 22.9276  12668.7  112.347
 23.1256  13223  114.232
 23.3236  12620.5  112.179
 23.5216  12575  111.628
 23.7196  12529.6  111.376
 23.9176  12267.5  109.956
 24.1156  12161.1  109.95
 24.3136  11969.1  109.884
 24.5116  12064.6  109.844
 24.7096  11865.5  108.749
 24.9076  11518.9  107.177
 25.1056  11554.8  107.811
 25.3036  11166.4  105.486
 25.5016  11312.3  106.207
 25.6996  11345.5  105.94
 25.8976  11260.4  105.983
 26.0956  11366.2  106.492
 26.2936  11072.9  104.761
 26.4916  11180.1  105.147
 26.6896  10793.9  103.607
 26.8876  10646  102.753
 27.0856  10751.2  103.306
 27.2836  10487.7  101.93
 27.4816  10737.1  103.068
 27.6796  10410  101.862
 27.8776  10506.5  102.191
 28.0756  10302.5  101.477
 28.2736  10257.3  100.837
 28.4716  10141.2  100.314
 28.6696  10060.6  99.7612
 28.8676  9988.43  99.7544
 29.0656  9801.59  98.7915
 29.2636  9846.23  98.8084
 29.4616  9719.1  98.347
 29.6596  9787.94  98.2576
 29.8576  9621.63  98.1075
 30.0556  9765.24  98.7092
 30.2536  9818.67  98.7728
 30.4516  9709.71  97.8793
 30.6496  9567.62  96.885
 30.8476  9331.1  96.1189
 31.0456  9411.82  96.5008
 31.2436  9437.32  95.8972
 31.4416  9376.87  95.7707
 31.6396  9650.93  97.2106
 31.8376  9404.97  95.5103
 32.0356  9262.81  95.3475
 32.2336  9152.43  94.168
 32.4316  9091.17  94.251
 32.6296  9064.36  93.9484
 32.8276  9148.24  94.1497
 33.0256  9026.64  93.6052
 33.2236  8957.69  93.3918
 33.4216  9049.54  93.5566
 33.6196  8899.95  93.0738
 33.8176  8895.87  93.2162
 34.0156  8778.64  92.208
 34.2136  8799.57  92.3675
 34.4116  8685.74  91.9146
 34.6096  8760.32  92.1875
 34.8076  8629.69  91.9042
 35.0056  8733.29  92.147
 35.2036  8565.39  91.4627
 35.4016  8583.64  91.4835
 35.5996  8523.95  91.2042
 35.7976  8500.18  91.3529
 35.9956  8553.31  91.2837
 36.1936  8394.89  90.2953
 36.3916  8360.28  90.287
 36.5896  8477.75  91.9005
 36.7876  8397.5  90.8651
 36.9856  8302.86  90.3794
 37.1836  8314.11  89.5356
 37.3816  8389.7  90.3081
 37.5796  8222.33  91.1361
 37.7776  8095.67  88.8148
 37.9756  8150.21  88.985
 38.1736  8305.15  90.0282
 38.3716  8326.98  90.4307
 38.5696  7992.09  88.969
 38.7676  7815.07  87.497
 38.9656  7978.61  88.0393
 39.1636  7878.28  87.7523
 39.3616  8016.41  88.4482
 39.5596  7824.77  88.2201
 39.7576  7985.81  88.4976
 39.9556  8057.07  88.5187
 40.1536  8135.92  89.1587
 40.3516  8112.51  89.038
 40.5496  8165.07  89.5957
 40.7476  8086.22  89.1701
 40.9456  8141.9  89.2203
 41.1436  8141.78  88.9393
 41.3416  8109.67  89.0981
 41.5396  7905.03  87.7788
 41.7376  8086.48  89.0458
 41.9356  7939.29  88.0921
 42.1336  7993.86  88.5471
 42.3316  7936.3  88.4182
 42.5296  7844.11  87.4258
 42.7276  7951.76  88.2654
 42.9256  7949.97  88.1212
 43.1236  7794.13  87.3641
 43.3216  7870.16  87.5375
 43.5196  7732.12  86.8277
 43.7176  7853.75  87.9076
 43.9156  7682.47  86.8468
 44.1136  7617.76  86.0362
 44.3116  7679.02  86.3921
 44.5096  7502.95  85.7057
 44.7076  7664.89  86.556
 44.9056  7627.62  86.2135
 45.1036  7504.73  85.146
 45.3016  7405.8  85.081
 45.4996  7390.14  84.9287
 45.6976  7338.17  84.8013
 45.8956  7450.43  85.2767
 46.0936  7455.51  85.3115
 46.2916  7427.3  85.1269
 46.4896  7463.46  85.3731
 46.6876  7323.4  85.2572
 46.8856  7196.35  83.7839
 47.0836  7225.98  84.2115
 47.2816  7170.97  83.7676
 47.4796  7200.19  84.043
 47.6776  7079.75  84.2733
 47.8756  7127.79  83.7381
 48.0736  7058.07  83.7827
 48.2716  6993.5  83.2132
 48.4696  6990.08  82.7908
 48.6676  7128.07  84.1846
 48.8656  7111.31  83.8167
 49.0636  7092.5  83.6553
 49.2616  6922.09  82.6794
 49.4596  7025.02  82.8538
 49.6576  6849.29  82.0402
 49.8556  6894.08  82.3248
 50.0536  6846.83  82.4879
 50.2516  6895.54  82.912
 50.4496  6759.49  81.7497
 50.6476  6862.73  82.0551
 50.8456  6871.72  82.1918
 51.0436  6600.02  80.9845
 51.2416  6693.38  81.2251
 51.4396  6582.42  80.9327
 51.6376  6543.08  80.5326
 51.8356  6665.36  80.918
 52.0336  6577.69  80.889
 52.2316  6510.36  80.8209
 52.4296  6524.3  80.5988
 52.6276  6454.04  80.2631
 52.8256  6526.74  80.2822
 53.0236  6417.71  80.263
 53.2216  6405.42  80.2187
 53.4196  6422.63  80.2516
 53.6176  6253.57  79.6596
 53.8156  6331.42  79.8233
 54.0136  6387.48  80.3499
 54.2116  6355.06  79.8078
 54.4096  6336.2  79.7339
 54.6076  6326.46  80.0266
 54.8056  6194.91  78.979
 55.0036  6191.1  79.3407
 55.2016  6199.06  78.9444
 55.3996  6234.8  79.141
 55.5976  6263.01  79.5051
 55.7956  6162.14  78.6847
 55.9936  6102.31  78.4347
 56.1916  6202.53  79.0967
 56.3896  6276.54  79.5517
 56.5876  6086.05  78.8817
 56.7856  6199.2  79.0928
 56.9836  6086.69  78.1525
 57.1816  6154.84  78.9773
 57.3796  6236.83  79.2996
 57.5776  6294.2  79.5877
 57.7756  6087.42  78.9019
 57.9736  6163.65  79.0687
 58.1716  6177.88  79.3949
 58.3696  6134.63  78.8733
 58.5676  6253.72  79.1032
 58.7656  6121.67  78.9344
 58.9636  6285.24  80.0192
 59.1616  6219.3  79.7094
 59.3596  6345.51  79.7662
 59.5576  6230.08  79.0976
 59.7556  6155.83  79.047
 59.9536  6149.06  78.9015
 60.1516  6255.35  80.4442
 60.1996  0.0000000E+00  0.0000000E+00