File: docs/examples/opeando_xrd/IS17_D/Data/IS17_D/17_Da_f00109.xye
# /beamlines/bl04/projects/cycle2025-II/20250340211-lsimonelli/DATA/IS17_D/17_Da_f00109.xye : mythproc.py merge -s 0.006 -l 0.5 -f /beamlines/bl04/inhouse/ff/FlatField/ff_20Nov2024rod8mm60s_17keV.raw -b True -c true -o xye /beamlines/bl04/projects/cycle2025-II/20250340211-lsimonelli/DATA/IS17_D/17_Da_00109.dat
# IsMon = [6791277, 6792510, 6792223]  IsPos = [-1.4999, -2.4884, -3.4988]
# Wave = 0.4962  CalPath /beamlines/bl04/projects/cycle2025-II/20250340211-lsimonelli/DATA/Align/Si_Pos1_25keV_f00001.cal
# Date = 2025-09-24_23:57:35 Dt = 4.8000  Bin = 0.0060  <imon> = 6792003 +/- 527 (Min/Max) 6791277 / 6792510
# icurr 253.0950  mocoIn 1.7262E-05  mocoOut 0.8096  i15 7.11235e+06  imon 6.792e+06  i7 6.0000  iEMpd_timer 4.8000  iEMpd_1 3.4722E-08  iEMpd_2 7.8463E-08  iEMpd_3 1.9059E-08  iEMpd_4 4.8561E-08  iEMhp_timer 4.8000  iEMhp_1 4.9446E-06  iEMhp_2 -2.5594E-08  iEMhp_3 -2.5739E-08  iEMhp_4 -2.2215E-08
#      9776
 1.7416  72002.4  268.424
 1.9396  47596.6  218.524
 2.1376  34549.1  186.173
 2.3356  31077.3  176.201
 2.5336  29108  171.126
 2.7316  28054  168.107
 2.9296  26789.9  164.451
 3.1276  25944.1  161.366
 3.3256  25478  159.564
 3.5236  26868.2  163.657
 3.7216  24327.2  156.991
 3.9196  23781.1  154.435
 4.1176  23738  154.063
 4.3156  24986.9  158.228
 4.5136  27330.2  164.445
 4.7116  28230.7  168.29
 4.9096  27765.4  166.321
 5.1076  27286.3  165.468
 5.3056  27886.9  167.004
 5.5036  27414.7  165.47
 5.7016  27843.2  166.729
 5.8996  28182.4  166.946
 6.0976  29225.4  171.474
 6.2956  29476.7  171.537
 6.4936  30274.6  173.02
 6.6916  30652.8  175.114
 6.8896  31668.7  177.85
 7.0876  32809  181.764
 7.2856  32664.1  180.403
 7.4836  32987.4  180.618
 7.6816  34055.4  184.061
 7.8796  35034.6  186.676
 8.0776  36717.6  192.107
 8.2756  38680.2  195.753
 8.4736  39149.5  196.74
 8.6716  38643  196.111
 8.8696  38429.7  196.062
 9.0676  37398  192.766
 9.2656  36414.8  190.911
 9.4636  35952.7  188.074
 9.6616  35001.7  186.366
 9.8596  33651.3  182.189
 10.0576  32071.2  178.534
 10.2556  30747  175.248
 10.4536  29632.5  171.644
 10.6516  28731.4  169.198
 10.8496  27907.4  166.182
 11.0476  27325  164.462
 11.2456  26328.1  161.964
 11.4436  26349.5  161.199
 11.6416  28006.5  166.565
 11.8396  25320.2  158.581
 12.0376  25415.9  158.514
 12.2356  24860.8  157.182
 12.4336  24740  156.339
 12.6316  24262.4  155.09
 12.8296  24564.4  155.688
 13.0276  25249.2  158.028
 13.2256  25592.6  159.466
 13.4236  25376.7  158.555
 13.6216  25139.5  157.834
 13.8196  25147.1  157.621
 14.0176  24696  156.487
 14.2156  24145.3  153.772
 14.4136  23189.9  152.094
 14.6116  22851.5  150.171
 14.8096  22314.3  148.378
 15.0076  20910.5  147.497
 15.2056  20643.7  142.312
 15.4036  19614.4  139.564
 15.6016  19180.6  137.076
 15.7996  18771.5  135.893
 15.9976  17954.9  135.889
 16.1956  17313.5  131.295
 16.3936  17022.7  129.35
 16.5916  16774.4  129.045
 16.7896  16647.6  128.616
 16.9876  16649.2  130.098
 17.1856  16598.8  128.243
 17.3836  15927.9  125.525
 17.5816  15709.4  125.158
 17.7796  15186.4  122.982
 17.9776  14957.9  122.85
 18.1756  15144.8  122.303
 18.3736  14821.2  121.509
 18.5716  14604.6  120.369
 18.7696  14679.6  120.244
 18.9676  14398  118.893
 19.1656  14261.5  118.881
 19.3636  14339.4  119.418
 19.5616  14275.9  119.325
 19.7596  14249.4  118.617
 19.9576  14206.6  118.484
 20.1556  15118.7  122.774
 20.3536  14662.4  120.257
 20.5516  14082.1  118.314
 20.7496  13599.1  116.21
 20.9476  13496.4  115.521
 21.1456  13616.8  116.368
 21.3436  13410.7  115.434
 21.5416  13307.4  114.994
 21.7396  13214.9  114.432
 21.9376  13084.9  113.63
 22.1356  13176.9  114.153
 22.3336  13049.2  113.898
 22.5316  13124.7  114.31
 22.7296  13050.7  113.349
 22.9276  12933.4  113.522
 23.1256  13134.4  113.86
 23.3236  13079.3  114.199
 23.5216  13254.4  114.608
 23.7196  12779  112.476
 23.9176  12825.4  112.43
 24.1156  12649.9  112.14
 24.3136  12236.7  111.092
 24.5116  12058.6  109.807
 24.7096  11808.1  108.478
 24.9076  11773.4  108.34
 25.1056  11313.2  106.671
 25.3036  11434.8  106.742
 25.5016  11326.9  106.276
 25.6996  11284.3  105.654
 25.8976  11149.4  105.458
 26.0956  11266.3  106.03
 26.2936  11237.7  105.53
 26.4916  11291.3  105.665
 26.6896  10980.5  104.503
 26.8876  10893.6  103.94
 27.0856  10833.1  103.702
 27.2836  10656.4  102.746
 27.4816  10648.8  102.635
 27.6796  10488.7  102.242
 27.8776  10414.3  101.742
 28.0756  10316.4  101.545
 28.2736  10219  100.647
 28.4716  10132.4  100.271
 28.6696  10174.5  100.321
 28.8676  10033.4  99.9747
 29.0656  9992.36  99.7474
 29.2636  9977.78  99.4661
 29.4616  9792.32  98.7215
 29.6596  9812.22  98.3842
 29.8576  9834.68  99.1908
 30.0556  9757.82  98.6791
 30.2536  9855.43  98.9585
 30.4516  9697.33  97.8205
 30.6496  9779.66  97.9539
 30.8476  9651.28  97.7587
 31.0456  9674.85  97.8379
 31.2436  9706.7  97.2552
 31.4416  9533.42  96.5552
 31.6396  9534.92  96.6161
 31.8376  9400.5  95.479
 32.0356  9329.75  95.6752
 32.2336  9338.67  95.1142
 32.4316  9277.14  95.2062
 32.6296  9164.87  94.4672
 32.8276  9313.8  94.9961
 33.0256  9114.64  94.0593
 33.2236  9136.56  94.3197
 33.4216  9143.08  94.0368
 33.6196  9253.46  94.9023
 33.8176  9089.16  94.2138
 34.0156  9070.86  93.7346
 34.2136  8993.77  93.3796
 34.4116  8826.67  92.6603
 34.6096  8824.89  92.5264
 34.8076  8755.05  92.5682
 35.0056  8818.38  92.5957
 35.2036  8841.44  92.9318
 35.4016  8893.12  93.1221
 35.5996  8752.97  92.4209
 35.7976  8701.21  92.4206
 35.9956  8661.78  91.859
 36.1936  8575.19  91.2656
 36.3916  8530.42  91.1944
 36.5896  8505.55  92.0506
 36.7876  8454.81  91.179
 36.9856  8411.72  90.9731
 37.1836  8350.29  89.7331
 37.3816  8386.12  90.2946
 37.5796  8347.83  91.8311
 37.7776  8291.68  89.8822
 37.9756  8267.88  89.6332
 38.1736  8294.47  89.9707
 38.3716  8388.21  90.766
 38.5696  8186.67  90.0464
 38.7676  7938.51  88.1773
 38.9656  8083.64  88.6129
 39.1636  8038.89  88.6337
 39.3616  8121.51  89.0189
 39.5596  7943.52  88.8853
 39.7576  7983.89  88.4863
 39.9556  8057.79  88.5282
 40.1536  8173.45  89.3693
 40.3516  8257.75  89.835
 40.5496  8185.1  89.6976
 40.7476  8182.34  89.6956
 40.9456  8296.68  90.0595
 41.1436  8118.01  88.81
 41.3416  8143.49  89.2864
 41.5396  8084.59  88.7731
 41.7376  8122.07  89.243
 41.9356  8095.12  88.9541
 42.1336  8113.75  89.2018
 42.3316  8044.76  89.0255
 42.5296  8013.14  88.3538
 42.7276  8076.2  88.9538
 42.9256  8008.21  88.4472
 43.1236  7823.83  87.53
 43.3216  7957.64  88.0221
 43.5196  7870.3  87.5985
 43.7176  7796.95  87.5897
 43.9156  7813.32  87.5897
 44.1136  7715  86.5861
 44.3116  7713.25  86.5907
 44.5096  7738.01  87.0423
 44.7076  7823.61  87.4507
 44.9056  7550.99  85.7849
 45.1036  7587.91  85.6182
 45.3016  7600.5  86.1948
 45.4996  7442.97  85.2352
 45.6976  7348.05  84.8641
 45.8956  7533.01  85.7414
 46.0936  7530.35  85.7282
 46.2916  7505.48  85.5664
 46.4896  7531.8  85.7539
 46.6876  7376.5  85.5711
 46.8856  7282.86  84.2807
 47.0836  7342.16  84.8845
 47.2816  7178.8  83.8124
 47.4796  7352.65  84.9224
 47.6776  7192.04  84.9393
 47.8756  7244.48  84.4208
 48.0736  7221.1  84.7409
 48.2716  7094.82  83.8112
 48.4696  7216.64  84.1207
 48.6676  7018.64  83.5379
 48.8656  7192.7  84.3006
 49.0636  7101.36  83.7101
 49.2616  6975.79  82.9986
 49.4596  7022.89  82.8438
 49.6576  7111.9  83.5957
 49.8556  6998.64  82.9474
 50.0536  6957.42  83.1432
 50.2516  7013.78  83.6169
 50.4496  6833  82.1915
 50.6476  6934.47  82.4821
 50.8456  6912.94  82.4424
 51.0436  6763.16  81.9831
 51.2416  6807.68  81.9261
 51.4396  6597.38  81.0418
 51.6376  6803.25  82.1211
 51.8356  6677.29  80.9846
 52.0336  6579.17  80.901
 52.2316  6611.07  81.4488
 52.4296  6678.96  81.5554
 52.6276  6598.73  81.1647
 52.8256  6626.65  80.9087
 53.0236  6504.9  80.7978
 53.2216  6438.66  80.4218
 53.4196  6480.26  80.5976
 53.6176  6373.74  80.4147
 53.8156  6355.86  79.9732
 54.0136  6431.53  80.6257
 54.2116  6459.06  80.4548
 54.4096  6456.78  80.4963
 54.6076  6396.72  80.4709
 54.8056  6349.72  79.9608
 55.0036  6358.45  80.4081
 55.2016  6390.39  80.1521
 55.3996  6423  80.3265
 55.5976  6382.86  80.2555
 55.7956  6322.69  79.6974
 55.9936  6318.77  79.8075
 56.1916  6313.29  79.7954
 56.3896  6369.23  80.1405
 56.5876  6228.05  79.7987
 56.7856  6252.93  79.4383
 56.9836  6249.56  79.2035
 57.1816  6223.59  79.4157
 57.3796  6313.12  79.7766
 57.5776  6324.35  79.7783
 57.7756  6262.39  80.0328
 57.9736  6252.85  79.6344
 58.1716  6318.58  80.3011
 58.3696  6267.58  79.7256
 58.5676  6308.28  79.4514
 58.7656  6214.66  79.5403
 58.9636  6335.64  80.3438
 59.1616  6309.5  80.2951
 59.3596  6320.39  79.6243
 59.5576  6286.91  79.4707
 59.7556  6297.73  79.9662
 59.9536  6484.83  81.0406
 60.1516  6297.05  80.7253
 60.1996  0.0000000E+00  0.0000000E+00