File: docs/examples/opeando_xrd/IS17_D/Data/IS17_D/17_Db_f00089.xye
# /beamlines/bl04/projects/cycle2025-II/20250340211-lsimonelli/DATA/IS17_D/17_Db_f00089.xye : mythproc.py merge -s 0.006 -l 0.5 -f /beamlines/bl04/inhouse/ff/FlatField/ff_20Nov2024rod8mm60s_17keV.raw -b True -c true -o xye /beamlines/bl04/projects/cycle2025-II/20250340211-lsimonelli/DATA/IS17_D/17_Db_00089.dat
# IsMon = [6757475, 6761299, 6758455]  IsPos = [-1.4999, -2.4884, -3.4988]
# Wave = 0.4962  CalPath /beamlines/bl04/projects/cycle2025-II/20250340211-lsimonelli/DATA/Align/Si_Pos1_25keV_f00001.cal
# Date = 2025-09-24_18:28:47 Dt = 4.8000  Bin = 0.0060  <imon> = 6759076 +/- 1622 (Min/Max) 6757475 / 6761299
# icurr 250.5906  mocoIn 1.7086E-05  mocoOut 0.8022  i15 7.08417e+06  imon 6.75908e+06  i7 5.3333  iEMpd_timer 4.8000  iEMpd_1 3.4732E-08  iEMpd_2 7.8799E-08  iEMpd_3 1.5508E-08  iEMpd_4 4.6513E-08  iEMhp_timer 4.8000  iEMhp_1 4.8933E-06  iEMhp_2 -2.5346E-08  iEMhp_3 -2.4210E-08  iEMhp_4 -2.0305E-08
#      9776
 1.7416  70267.3  265.187
 1.9396  48023.7  219.509
 2.1376  35126.2  187.734
 2.3356  31498.9  177.403
 2.5336  29173.4  171.33
 2.7316  27025.9  164.998
 2.9296  25888.6  161.641
 3.1276  25324.3  159.416
 3.3256  24543  156.588
 3.5236  25994.9  160.949
 3.7216  23936.6  155.717
 3.9196  23571.6  153.718
 4.1176  23544.1  153.427
 4.3156  24485  156.635
 4.5136  26802.9  162.843
 4.7116  27672.4  166.605
 4.9096  27184.8  164.565
 5.1076  26929.4  164.377
 5.3056  26964.9  164.196
 5.5036  26939.6  164.031
 5.7016  27435.6  165.502
 5.8996  27680.1  165.467
 6.0976  28684.1  169.862
 6.2956  28666  169.151
 6.4936  29351.2  170.363
 6.6916  29586.8  172.028
 6.8896  30180.2  173.598
 7.0876  31318.9  177.583
 7.2856  31189.4  176.268
 7.4836  31615.2  176.816
 7.6816  32292.3  179.22
 7.8796  33159  181.606
 8.0776  34412.4  185.976
 8.2756  36005.7  188.871
 8.4736  36405  189.719
 8.6716  35990.3  189.246
 8.8696  36961.3  192.313
 9.0676  36000.1  189.124
 9.2656  34930.4  186.984
 9.4636  33905.9  182.698
 9.6616  33281.8  181.731
 9.8596  32854.1  179.985
 10.0576  30749.3  174.788
 10.2556  30091  173.361
 10.4536  29318.8  170.709
 10.6516  28819.7  169.468
 10.8496  27477.7  164.9
 11.0476  26812.1  162.91
 11.2456  26008.5  160.969
 11.4436  26342  161.178
 11.6416  25705.7  159.56
 11.8396  24422.3  155.723
 12.0376  23990.6  153.993
 12.2356  23639.1  153.262
 12.4336  23561.5  152.566
 12.6316  23567.8  152.849
 12.8296  23621.3  152.638
 13.0276  23788.3  153.382
 13.2256  24131.4  154.848
 13.4236  23905  153.898
 13.6216  24252.3  155.006
 13.8196  26314.6  160.901
 14.0176  23465.9  152.548
 14.2156  22975.7  149.982
 14.4136  21908.4  147.832
 14.6116  21687.5  146.282
 14.8096  21008.9  143.964
 15.0076  19924.3  144.045
 15.2056  19154  137.077
 15.4036  18028.2  133.804
 15.6016  17986.2  132.74
 15.7996  17513.9  131.254
 15.9976  17011.9  132.228
 16.1956  16741.8  129.092
 16.3936  16529.5  127.456
 16.5916  16144.1  126.6
 16.7896  16401.1  127.66
 16.9876  15997  127.509
 17.1856  15830.5  125.228
 17.3836  15542  123.998
 17.5816  15035.9  122.438
 17.7796  14926.3  121.925
 17.9776  14647.4  121.553
 18.1756  14970  121.623
 18.3736  14807.5  121.439
 18.5716  14357.4  119.336
 18.7696  14258.6  118.48
 18.9676  14183.6  117.983
 19.1656  13842.7  117.138
 19.3636  13766.6  117.004
 19.5616  13729.4  117.019
 19.7596  14082.2  117.918
 19.9576  14212.4  118.499
 20.1556  13902.3  117.72
 20.3536  13463.2  115.233
 20.5516  13126.1  114.215
 20.7496  12833.5  112.882
 20.9476  12857.5  112.755
 21.1456  12771.9  112.69
 21.3436  12723.4  112.427
 21.5416  12669.1  112.207
 21.7396  12510.4  111.344
 21.9376  12418.6  110.71
 22.1356  12461.4  111.016
 22.3336  12156.5  109.927
 22.5316  12263.5  110.506
 22.7296  12235.1  109.753
 22.9276  12232.2  110.395
 23.1256  12394.5  110.618
 23.3236  12564.7  111.951
 23.5216  12209.7  109.998
 23.7196  12356.7  110.615
 23.9176  12353.2  110.348
 24.1156  12132.7  109.81
 24.3136  11937.8  109.722
 24.5116  11841.9  108.801
 24.7096  11588.3  107.452
 24.9076  11262.7  105.952
 25.1056  11017.2  105.25
 25.3036  10875.4  104.089
 25.5016  10941.5  104.452
 25.6996  10983.5  104.235
 25.8976  10911.1  104.317
 26.0956  10738.8  103.513
 26.2936  10791.1  103.416
 26.4916  11005.6  104.297
 26.6896  10594.6  102.639
 26.8876  10502.4  102.038
 27.0856  10359  101.412
 27.2836  10329.4  101.151
 27.4816  10165.2  100.282
 27.6796  10108.1  100.364
 27.8776  10264.5  100.995
 28.0756  9909.24  99.5128
 28.2736  9934.84  99.228
 28.4716  9793.25  98.5723
 28.6696  9822.26  98.5606
 28.8676  9750.62  98.5588
 29.0656  9638.69  97.966
 29.2636  9498.78  97.0438
 29.4616  9390.86  96.6735
 29.6596  9336.29  95.9645
 29.8576  9151.31  95.6769
 30.0556  9027.25  94.9133
 30.2536  9333.84  96.3052
 30.4516  9417.58  96.3858
 30.6496  9485.01  96.4624
 30.8476  9250.54  95.7049
 31.0456  9444.61  96.6635
 31.2436  9393.54  95.6664
 31.4416  9193.19  94.8145
 31.6396  9132.4  94.5482
 31.8376  9247.34  94.6756
 32.0356  9134.94  94.6442
 32.2336  9144.33  94.1147
 32.4316  8840.75  92.9295
 32.6296  8763.97  92.3601
 32.8276  8887.91  92.8097
 33.0256  8669.94  91.7256
 33.2236  8855.34  92.8484
 33.4216  8726.24  91.8678
 33.6196  8650.94  91.747
 33.8176  8748.47  92.4359
 34.0156  8549.12  91.0062
 34.2136  8745.18  92.072
 34.4116  8431.76  90.5668
 34.6096  8563  91.1437
 34.8076  8404.55  90.7116
 35.0056  8435  90.5522
 35.2036  8662.97  91.9917
 35.4016  8287.31  89.8846
 35.5996  8188.28  89.3857
 35.7976  8191.68  89.6643
 35.9956  8463.03  90.7926
 36.1936  8430.9  90.4752
 36.3916  8257.39  89.7317
 36.5896  8207.85  90.4379
 36.7876  7961.25  88.4734
 36.9856  7843.2  87.8417
 37.1836  7865.31  87.0824
 37.3816  7949.42  87.9143
 37.5796  8004.01  89.9222
 37.7776  8030.39  88.4578
 37.9756  8075.57  88.5956
 38.1736  8198.17  89.4572
 38.3716  7998.33  88.627
 38.5696  7858  88.2157
 38.7676  7790.4  87.3404
 38.9656  7903.75  87.6139
 39.1636  7942  88.1008
 39.3616  7870.07  87.6211
 39.5596  7803.17  88.0968
 39.7576  7707.29  86.9421
 39.9556  7718.38  86.6426
 40.1536  7943.59  88.0994
 40.3516  7873.64  87.7181
 40.5496  7810.07  87.6178
 40.7476  7844.91  87.8116
 40.9456  7960.85  88.2189
 41.1436  7993.57  88.1265
 41.3416  7771.65  87.222
 41.5396  7861.25  87.5348
 41.7376  7827.67  87.6073
 41.9356  7784.18  87.2229
 42.1336  7850  87.735
 42.3316  7696.47  87.0677
 42.5296  7695.91  86.5882
 42.7276  7774.62  87.2699
 42.9256  7721.13  86.849
 43.1236  7659.48  86.6029
 43.3216  7719.49  86.6862
 43.5196  7616.43  86.1686
 43.7176  7760.71  87.3795
 43.9156  7381.49  85.1311
 44.1136  7444.36  85.0502
 44.3116  7471.93  85.2233
 44.5096  7287.21  84.4666
 44.7076  7521.71  85.7447
 44.9056  7652.59  86.3651
 45.1036  7456.11  84.8722
 45.3016  7477.77  85.5009
 45.4996  7446.04  85.2556
 45.6976  7313.94  84.6731
 45.8956  7516.53  85.6402
 46.0936  7493.1  85.505
 46.2916  7480.73  85.4179
 46.4896  7582.45  86.0262
 46.6876  7400.23  85.7088
 46.8856  7401.69  84.9662
 47.0836  7301.84  84.6472
 47.2816  7335.48  84.7181
 47.4796  7372.88  85.0354
 47.6776  7147.61  84.6829
 47.8756  7277.78  84.6125
 48.0736  7258.42  84.9631
 48.2716  7221.55  84.5545
 48.4696  7383.78  85.0877
 48.6676  7315.54  85.2875
 48.8656  7309.75  84.9768
 49.0636  7296.19  84.8444
 49.2616  7159.07  84.0774
 49.4596  7309.61  84.5182
 49.6576  7183.47  84.0095
 49.8556  7157.05  83.8808
 50.0536  7197.19  84.569
 50.2516  7217.11  84.8205
 50.4496  7201.22  84.3724
 50.6476  7181.43  83.934
 50.8456  7232.28  84.3139
 51.0436  6992  83.3514
 51.2416  6844.63  82.1495
 51.4396  6809.49  82.3366
 51.6376  6898.42  82.6901
 51.8356  6915.79  82.4162
 52.0336  6968.01  83.2555
 52.2316  6843.99  82.8702
 52.4296  6869.01  82.7213
 52.6276  6707.22  81.8498
 52.8256  6969.79  82.9873
 53.0236  7028.22  83.979
 53.2216  6809.22  82.7003
 53.4196  6953.56  83.4661
 53.6176  6974.3  84.1146
 53.8156  6886.31  83.2434
 54.0136  6523.4  81.1854
 54.2116  6708.5  81.965
 54.4096  6537.13  80.9863
 54.6076  6492.52  81.0359
 54.8056  6407.63  80.2998
 55.0036  6419.78  80.7813
 55.2016  6615.6  81.5062
 55.3996  6282.67  79.415
 55.5976  6443.33  80.6362
 55.7956  6376.82  79.9982
 55.9936  6392.24  80.2502
 56.1916  6267.3  79.5025
 56.3896  6226.63  79.2085
 56.5876  6179.25  79.454
 56.7856  6299.03  79.7196
 56.9836  6327.6  79.6669
 57.1816  6385.53  80.4075
 57.3796  6197.17  79.0294
 57.5776  6270.7  79.3882
 57.7756  6104.25  78.9957
 57.9736  6139.56  78.8887
 58.1716  6094.64  78.8662
 58.3696  5805.71  76.7275
 58.5676  5925.47  76.9769
 58.7656  5861.52  77.2446
 58.9636  5879.86  77.3954
 59.1616  5772.82  76.8176
 59.3596  5930.43  77.1336
 59.5576  5807.85  76.3876
 59.7556  5774.54  76.5773
 59.9536  5895.14  77.2729
 60.1516  5863.93  77.9045
 60.1996  0.0000000E+00  0.0000000E+00