File: docs/examples/opeando_xrd/IS17_D/Data/IS17_D/17_Db_f00146.xye
# /beamlines/bl04/projects/cycle2025-II/20250340211-lsimonelli/DATA/IS17_D/17_Db_f00146.xye : mythproc.py merge -s 0.006 -l 0.5 -f /beamlines/bl04/inhouse/ff/FlatField/ff_20Nov2024rod8mm60s_17keV.raw -b True -c true -o xye /beamlines/bl04/projects/cycle2025-II/20250340211-lsimonelli/DATA/IS17_D/17_Db_00146.dat
# IsMon = [6770267, 6769231, 6771700]  IsPos = [-1.4999, -2.4883, -3.4989]
# Wave = 0.4962  CalPath /beamlines/bl04/projects/cycle2025-II/20250340211-lsimonelli/DATA/Align/Si_Pos1_25keV_f00001.cal
# Date = 2025-09-25_10:23:44 Dt = 4.8000  Bin = 0.0060  <imon> = 6770399 +/- 1012 (Min/Max) 6769231 / 6771700
# icurr 251.6540  mocoIn 1.7169E-05  mocoOut 0.8053  i15 7.09237e+06  imon 6.7704e+06  i7 5.3333  iEMpd_timer 4.8000  iEMpd_1 3.4232E-08  iEMpd_2 7.8850E-08  iEMpd_3 1.8062E-08  iEMpd_4 4.8405E-08  iEMhp_timer 4.8000  iEMhp_1 4.9168E-06  iEMhp_2 -2.5467E-08  iEMhp_3 -2.3875E-08  iEMhp_4 -2.1247E-08
#      9776
 1.7416  70185.1  265.003
 1.9396  49012  221.739
 2.1376  35869.8  189.69
 2.3356  32367.1  179.812
 2.5336  29833.1  173.237
 2.7316  27395.6  166.132
 2.9296  26532.6  163.654
 3.1276  25701  160.606
 3.3256  25213  158.752
 3.5236  26455.9  162.391
 3.7216  24542.6  157.676
 3.9196  23855.1  154.629
 4.1176  23807.9  154.284
 4.3156  24812.9  157.674
 4.5136  27061.7  163.638
 4.7116  28273.8  168.411
 4.9096  27564.5  165.709
 5.1076  27291.7  165.475
 5.3056  27377.4  165.447
 5.5036  27117.1  164.579
 5.7016  27771.2  166.508
 5.8996  28343.6  167.437
 6.0976  29081.7  171.029
 6.2956  28936.5  169.948
 6.4936  29912.5  171.978
 6.6916  30194.8  173.784
 6.8896  30897.7  175.646
 7.0876  31683  178.614
 7.2856  31815.7  178.028
 7.4836  32223.2  178.597
 7.6816  32934.1  180.969
 7.8796  33949.6  183.755
 8.0776  35127.7  187.91
 8.2756  37012.2  191.49
 8.4736  37711.7  193.103
 8.6716  37055.3  192.047
 8.8696  37837.2  194.556
 9.0676  37161.1  192.125
 9.2656  36184.3  190.287
 9.4636  35143.1  185.978
 9.6616  34374.2  184.671
 9.8596  33718.3  182.354
 10.0576  31804.1  177.772
 10.2556  30979.9  175.91
 10.4536  30295.2  173.548
 10.6516  29580.9  171.708
 10.8496  28099.1  166.751
 11.0476  27496.9  164.974
 11.2456  26862.7  163.602
 11.4436  27270.5  163.994
 11.6416  26334.5  161.493
 11.8396  25247.6  158.334
 12.0376  24631.1  156.031
 12.2356  24277.3  155.324
 12.4336  24317.2  154.987
 12.6316  24170.7  154.788
 12.8296  24166  154.385
 13.0276  24466.6  155.556
 13.2256  24678.7  156.599
 13.4236  24596.6  156.104
 13.6216  24914.4  157.101
 13.8196  27097.4  163.309
 14.0176  23954.3  154.032
 14.2156  23565.3  151.887
 14.4136  22503.2  149.822
 14.6116  22191.5  147.979
 14.8096  21308.2  144.976
 15.0076  20413.6  145.813
 15.2056  19691.4  138.989
 15.4036  18495.8  135.535
 15.6016  18553.5  134.824
 15.7996  17921  132.775
 15.9976  17738.9  135.6
 16.1956  17280.1  131.126
 16.3936  16808.1  128.509
 16.5916  16715.6  128.801
 16.7896  16608  128.445
 16.9876  16511.8  129.546
 17.1856  16183.6  126.633
 17.3836  15887  125.367
 17.5816  15624.8  124.818
 17.7796  15316.1  123.505
 17.9776  15084.5  123.352
 18.1756  15197.1  122.543
 18.3736  14972.7  122.126
 18.5716  14865.9  121.426
 18.7696  14802.1  120.725
 18.9676  14591.3  119.667
 19.1656  14181.8  118.565
 19.3636  14162.1  118.685
 19.5616  14115.7  118.656
 19.7596  14406.1  119.259
 19.9576  14766.4  120.791
 20.1556  14165.5  118.835
 20.3536  13699.4  116.249
 20.5516  13479.4  115.753
 20.7496  13269.7  114.782
 20.9476  13277.5  114.576
 21.1456  13126.5  114.249
 21.3436  13055.5  113.886
 21.5416  12891.4  113.187
 21.7396  12897.6  113.052
 21.9376  12766.4  112.248
 22.1356  12828.7  112.645
 22.3336  12468.8  111.344
 22.5316  12437.4  111.29
 22.7296  12769.3  112.131
 22.9276  12347.4  110.923
 23.1256  12668.5  111.833
 23.3236  12822.7  113.082
 23.5216  12872.6  112.931
 23.7196  12638.3  111.85
 23.9176  12689.4  111.825
 24.1156  12426.7  111.124
 24.3136  12030.2  110.153
 24.5116  11991  109.496
 24.7096  11688.7  107.924
 24.9076  11794.3  108.433
 25.1056  11354.6  106.864
 25.3036  11265.8  105.953
 25.5016  11127.7  105.328
 25.6996  11130.7  104.933
 25.8976  11198.8  105.685
 26.0956  11009.4  104.797
 26.2936  11112.4  104.951
 26.4916  11246.9  105.455
 26.6896  10832.3  103.783
 26.8876  10774.4  103.36
 27.0856  10617.9  102.663
 27.2836  10538.2  102.233
 27.4816  10375.9  101.319
 27.6796  10335.2  101.488
 27.8776  10681.4  103.011
 28.0756  10265.4  101.292
 28.2736  10159.9  100.348
 28.4716  9959.21  99.4068
 28.6696  10030  99.5999
 28.8676  9951.12  99.5652
 29.0656  9787.9  98.7285
 29.2636  9794.56  98.5508
 29.4616  9509.27  97.2819
 29.6596  9618.65  97.4095
 29.8576  9262.98  96.2671
 30.0556  9385.57  96.7711
 30.2536  9428.07  96.7923
 30.4516  9646.88  97.5544
 30.6496  9669.95  97.393
 30.8476  9656.48  97.7686
 31.0456  9540.64  97.1452
 31.2436  9721.7  97.3196
 31.4416  9482.26  96.3004
 31.6396  9477.92  96.3304
 31.8376  9523.54  96.0636
 32.0356  9351.2  95.7834
 32.2336  9280.63  94.8155
 32.4316  8986.68  93.6589
 32.6296  9057.11  93.9044
 32.8276  9163.55  94.2417
 33.0256  8955.35  93.2201
 33.2236  9106.05  94.1539
 33.4216  8937.09  92.9602
 33.6196  8925.51  93.1992
 33.8176  9006.9  93.7939
 34.0156  8858.77  92.6438
 34.2136  8922.13  92.9954
 34.4116  8628.16  91.7253
 34.6096  8730.57  92.0347
 34.8076  8621.35  91.8767
 35.0056  8654.57  91.7164
 35.2036  8777.09  92.595
 35.4016  8545.58  91.2762
 35.5996  8496.77  91.0519
 35.7976  8441.62  91.0286
 35.9956  8609.86  91.5814
 36.1936  8515.69  90.9237
 36.3916  8438.78  90.6669
 36.5896  8366.24  91.3143
 36.7876  8038.81  88.9063
 36.9856  7989.36  88.658
 37.1836  8184.82  88.8418
 37.3816  8088.31  88.677
 37.5796  8088.56  90.4019
 37.7776  8293.96  89.8842
 37.9756  8296.68  89.779
 38.1736  8213.76  89.5178
 38.3716  8236.71  89.9232
 38.5696  7978.42  88.8801
 38.7676  8107.12  89.1115
 38.9656  8025.92  88.2876
 39.1636  8005.9  88.4524
 39.3616  8020.18  88.4654
 39.5596  7890.89  88.5869
 39.7576  7899.85  88.023
 39.9556  7916.61  87.7529
 40.1536  8098.82  88.9514
 40.3516  8055.12  88.7288
 40.5496  8122.28  89.3622
 40.7476  8056.34  88.9931
 40.9456  8109.42  89.0417
 41.1436  8107.2  88.7495
 41.3416  7978.82  88.344
 41.5396  7956.5  88.0005
 41.7376  7921.98  88.1303
 41.9356  7955.21  88.1761
 42.1336  8035.79  88.7675
 42.3316  7859.33  87.9846
 42.5296  7927.88  87.8849
 42.7276  7995.52  88.5064
 42.9256  8021.7  88.5189
 43.1236  7823.04  87.5161
 43.3216  7919.66  87.8018
 43.5196  7844.52  87.4488
 43.7176  7762.44  87.3871
 43.9156  7580.76  86.2793
 44.1136  7549.15  85.6515
 44.3116  7637.8  86.1608
 44.5096  7552.99  85.9963
 44.7076  7613.62  86.2714
 44.9056  7683.3  86.524
 45.1036  7624.37  85.8166
 45.3016  7704.55  86.7715
 45.4996  7621.95  86.244
 45.6976  7555.16  86.0472
 45.8956  7687.31  86.6144
 46.0936  7640.41  86.3012
 46.2916  7713.65  86.7359
 46.4896  7771.23  87.08
 46.6876  7533.69  86.4823
 46.8856  7491.17  85.4812
 47.0836  7514.68  85.8774
 47.2816  7442.97  85.3417
 47.4796  7576.58  86.2073
 47.6776  7313.87  85.6493
 47.8756  7437.26  85.5323
 48.0736  7537.28  86.5768
 48.2716  7382.44  85.5304
 48.4696  7553.37  86.0905
 48.6676  7424.2  85.9256
 48.8656  7355.04  85.2521
 49.0636  7505.9  86.0548
 49.2616  7311.08  84.8563
 49.4596  7359.66  84.9563
 49.6576  7344.6  84.9483
 49.8556  7382.59  85.1906
 50.0536  7353.38  85.4746
 50.2516  7416.03  85.9718
 50.4496  7316.39  85.047
 50.6476  7386.29  85.1252
 50.8456  7355.24  85.0216
 51.0436  7143.77  84.2603
 51.2416  7042.41  83.3265
 51.4396  6972.23  83.3189
 51.6376  6966.3  83.1056
 51.8356  7103.14  83.5292
 52.0336  6966.58  83.2328
 52.2316  7050.23  84.1014
 52.4296  6938.67  83.129
 52.6276  6848.1  82.6903
 52.8256  7018.96  83.2676
 53.0236  7169.24  84.816
 53.2216  7052.29  84.161
 53.4196  7014.67  83.8408
 53.6176  7012.08  84.3398
 53.8156  6997.25  83.9158
 54.0136  6737.39  82.5128
 54.2116  6911.12  83.2028
 54.4096  6652.21  81.7037
 54.6076  6583.14  81.6051
 54.8056  6664.95  81.8843
 55.0036  6582.13  81.7971
 55.2016  6553.74  81.1729
 55.3996  6498.61  80.7795
 55.5976  6603.53  81.6108
 55.7956  6495.37  80.7597
 55.9936  6611.99  81.6066
 56.1916  6433.62  80.524
 56.3896  6404.95  80.3398
 56.5876  6358.64  80.6078
 56.7856  6363.81  80.1355
 56.9836  6402.18  80.1502
 57.1816  6388.79  80.334
 57.3796  6324.46  79.8463
 57.5776  6414.42  80.2992
 57.7756  6232.18  79.8225
 57.9736  6300.28  79.9038
 58.1716  6156.4  79.2623
 58.3696  5943.44  77.6409
 58.5676  6049.41  77.798
 58.7656  6016.59  78.2615
 58.9636  5992.9  78.1331
 59.1616  6073.45  78.7949
 59.3596  6049.35  77.892
 59.5576  6048.04  77.9401
 59.7556  6084.04  78.5915
 59.9536  6204.42  79.2628
 60.1516  5878.69  77.9914
 60.1996  5899.33  81.2371