File: docs/examples/opeando_xrd/IS17_D/Data/IS17_D/17_Da_f00132.xye
# /beamlines/bl04/projects/cycle2025-II/20250340211-lsimonelli/DATA/IS17_D/17_Da_f00132.xye : mythproc.py merge -s 0.006 -l 0.5 -f /beamlines/bl04/inhouse/ff/FlatField/ff_20Nov2024rod8mm60s_17keV.raw -b True -c true -o xye /beamlines/bl04/projects/cycle2025-II/20250340211-lsimonelli/DATA/IS17_D/17_Da_00132.dat
# IsMon = [6778698, 6777606, 6781573]  IsPos = [-1.4999, -2.4884, -3.4988]
# Wave = 0.4962  CalPath /beamlines/bl04/projects/cycle2025-II/20250340211-lsimonelli/DATA/Align/Si_Pos1_25keV_f00001.cal
# Date = 2025-09-25_06:21:08 Dt = 4.8000  Bin = 0.0060  <imon> = 6779292 +/- 1673 (Min/Max) 6777606 / 6781573
# icurr 252.3108  mocoIn 1.7213E-05  mocoOut 0.8074  i15 7.10064e+06  imon 6.77929e+06  i7 5.3333  iEMpd_timer 4.8000  iEMpd_1 3.5222E-08  iEMpd_2 8.0282E-08  iEMpd_3 1.7561E-08  iEMpd_4 4.9841E-08  iEMhp_timer 4.8000  iEMhp_1 4.9279E-06  iEMhp_2 -2.5813E-08  iEMhp_3 -2.4473E-08  iEMhp_4 -2.1429E-08
#      9776
 1.7416  70640.7  265.871
 1.9396  46012.4  214.85
 2.1376  32852.4  181.543
 2.3356  29215.5  170.839
 2.5336  27088.2  165.081
 2.7316  25340  159.783
 2.9296  24337.5  156.755
 3.1276  23911.4  154.926
 3.3256  23487.1  153.217
 3.5236  25451.3  159.299
 3.7216  23282.1  153.583
 3.9196  22938.2  151.671
 4.1176  22667.6  150.547
 4.3156  24181.6  155.651
 4.5136  26371.1  161.541
 4.7116  27363.3  165.685
 4.9096  26730.3  163.192
 5.1076  26373.3  162.675
 5.3056  26747.8  163.553
 5.5036  26599.9  163.002
 5.7016  27199.3  164.792
 5.8996  27931  166.203
 6.0976  28516.4  169.384
 6.2956  29018  170.198
 6.4936  29573.8  171.006
 6.6916  30059.5  173.411
 6.8896  30925.6  175.75
 7.0876  31935.5  179.327
 7.2856  31798.9  177.995
 7.4836  32407.6  179.02
 7.6816  33143.7  181.584
 7.8796  34902.1  186.331
 8.0776  36670.2  191.986
 8.2756  38523.9  195.351
 8.4736  38758.1  195.76
 8.6716  38088.1  194.71
 8.8696  38367.6  195.884
 9.0676  37374.2  192.688
 9.2656  36261.3  190.487
 9.4636  35849.5  187.787
 9.6616  35273.7  187.065
 9.8596  33769.3  182.523
 10.0576  32115.3  178.674
 10.2556  31299.8  176.829
 10.4536  30925  175.361
 10.6516  30332.4  173.873
 10.8496  28638.1  168.335
 11.0476  27870.2  166.089
 11.2456  28022.2  167.1
 11.4436  28154.5  166.629
 11.6416  26718.9  162.685
 11.8396  25344.5  158.657
 12.0376  25415  158.504
 12.2356  24862.5  157.188
 12.4336  24765.8  156.42
 12.6316  24459.5  155.719
 12.8296  24858.1  156.615
 13.0276  25294.7  158.17
 13.2256  25093.6  157.904
 13.4236  24899.1  157.06
 13.6216  24924.9  157.159
 13.8196  24951.1  157.004
 14.0176  24603.2  156.196
 14.2156  24151.8  153.788
 14.4136  22790  150.775
 14.6116  22593.8  149.323
 14.8096  21833.1  146.767
 15.0076  20651.1  146.599
 15.2056  20318  141.185
 15.4036  19387.9  138.754
 15.6016  19234.3  137.271
 15.7996  18636.4  135.396
 15.9976  17698.9  134.904
 16.1956  17338.7  131.379
 16.3936  17060  129.486
 16.5916  16745.9  128.928
 16.7896  16814.8  129.247
 16.9876  16539.4  129.679
 17.1856  16351.1  127.29
 17.3836  15632.9  124.36
 17.5816  15546.1  124.513
 17.7796  15276.9  123.362
 17.9776  15375.6  124.551
 18.1756  15651.5  124.338
 18.3736  15249.1  123.257
 18.5716  15034.6  122.131
 18.7696  14885.1  121.083
 18.9676  14586.6  119.667
 19.1656  14533.5  120.013
 19.3636  14431.6  119.803
 19.5616  14363.6  119.688
 19.7596  14573.2  119.947
 19.9576  15098.5  122.148
 20.1556  14178.1  118.895
 20.3536  13868  116.954
 20.5516  13820.9  117.22
 20.7496  13331.1  115.059
 20.9476  13466.2  115.392
 21.1456  13645.8  116.493
 21.3436  13251.7  114.748
 21.5416  13202  114.534
 21.7396  13067.1  113.789
 21.9376  13112.4  113.75
 22.1356  13138  113.996
 22.3336  12966.7  113.542
 22.5316  12920.3  113.419
 22.7296  12922.2  112.779
 22.9276  12935.3  113.523
 23.1256  13065.3  113.554
 23.3236  12926.7  113.524
 23.5216  12684.6  112.102
 23.7196  12685.4  112.055
 23.9176  12451.9  110.773
 24.1156  12432.2  111.162
 24.3136  11984  109.949
 24.5116  11986.9  109.488
 24.7096  11815.7  108.52
 24.9076  11546.4  107.294
 25.1056  11324.2  106.731
 25.3036  11233.2  105.802
 25.5016  11203.8  105.694
 25.6996  11328.5  105.858
 25.8976  11175.1  105.581
 26.0956  11381.6  106.567
 26.2936  11122.9  104.996
 26.4916  11198.1  105.225
 26.6896  10992.5  104.558
 26.8876  10791.2  103.451
 27.0856  10929.6  104.16
 27.2836  10532.1  102.143
 27.4816  10703.8  102.909
 27.6796  10513.8  102.361
 27.8776  10493.5  102.128
 28.0756  10414.6  102.029
 28.2736  10409.2  101.581
 28.4716  10195.1  100.578
 28.6696  10188.2  100.388
 28.8676  9975.12  99.6853
 29.0656  9927.29  99.4228
 29.2636  9986.2  99.5154
 29.4616  9943.67  99.4817
 29.6596  9889.3  98.7701
 29.8576  9775.44  98.8931
 30.0556  9820.9  98.9939
 30.2536  9808.78  98.7276
 30.4516  9638.8  97.517
 30.6496  9722.18  97.6601
 30.8476  9492.09  96.941
 31.0456  9526.07  97.0768
 31.2436  9569.31  96.558
 31.4416  9410.69  95.9374
 31.6396  9526.66  96.5821
 31.8376  9579.09  96.3851
 32.0356  9311.75  95.601
 32.2336  9194.82  94.3825
 32.4316  9216.19  94.8989
 32.6296  9117.02  94.2229
 32.8276  9106.9  93.9409
 33.0256  9169.83  94.3422
 33.2236  9029.68  93.7663
 33.4216  9087.7  93.7505
 33.6196  9047.73  93.8463
 33.8176  9095.9  94.2602
 34.0156  8860.37  92.6456
 34.2136  8916.31  92.9718
 34.4116  8829.28  92.6649
 34.6096  8784.56  92.3089
 34.8076  8817.5  92.9055
 35.0056  8725.02  92.105
 35.2036  8616.16  91.7193
 35.4016  8668.5  91.9334
 35.5996  8574.47  91.4737
 35.7976  8578.79  91.7658
 35.9956  8632.16  91.6939
 36.1936  8464.34  90.6758
 36.3916  8446.62  90.7497
 36.5896  8390.71  91.4369
 36.7876  8518.49  91.5208
 36.9856  8325.8  90.5082
 37.1836  8291.93  89.4218
 37.3816  8314.58  89.9063
 37.5796  8190.19  90.9658
 37.7776  8266.19  89.733
 37.9756  8164.54  89.0568
 38.1736  8277.27  89.8723
 38.3716  8187.93  89.6687
 38.5696  8159.56  89.9005
 38.7676  7896.44  87.9509
 38.9656  8112.27  88.7748
 39.1636  7905.31  87.8991
 39.3616  8163.8  89.2567
 39.5596  7995.71  89.1825
 39.7576  7890.36  87.96
 39.9556  8023.62  88.3459
 40.1536  8152.67  89.2478
 40.3516  8196.56  89.4997
 40.5496  8199.28  89.786
 40.7476  8094.3  89.2152
 40.9456  8218.46  89.6401
 41.1436  8122.46  88.8352
 41.3416  8069.01  88.8768
 41.5396  8126.64  88.9965
 41.7376  8070.78  88.9622
 41.9356  8001.51  88.4361
 42.1336  8028.62  88.7362
 42.3316  8021.75  88.8995
 42.5296  8006.3  88.3251
 42.7276  8029.21  88.6935
 42.9256  7955.88  88.1585
 43.1236  7918.83  88.0584
 43.3216  8018.58  88.3565
 43.5196  7847.8  87.4805
 43.7176  7976.53  88.5927
 43.9156  7649.91  86.671
 44.1136  7766.29  86.8754
 44.3116  7737.23  86.7228
 44.5096  7635.54  86.4656
 44.7076  7732.43  86.9408
 44.9056  7762.46  86.9712
 45.1036  7456.38  84.8648
 45.3016  7553.31  85.9149
 45.4996  7464.78  85.3527
 45.6976  7417.32  85.2552
 45.8956  7504.59  85.5849
 46.0936  7555.81  85.8785
 46.2916  7536.53  85.7514
 46.4896  7608.61  86.1894
 46.6876  7388.66  85.6516
 46.8856  7312.39  84.4508
 47.0836  7307.45  84.6705
 47.2816  7201.51  83.9442
 47.4796  7215.85  84.1338
 47.6776  7225.29  85.1354
 47.8756  7077.37  83.4438
 48.0736  7199.21  84.6148
 48.2716  7084.69  83.7556
 48.4696  7279.7  84.4927
 48.6676  7145.83  84.2953
 48.8656  7206.67  84.3786
 49.0636  7075.78  83.5443
 49.2616  6967.9  82.9552
 49.4596  7042.42  82.9648
 49.6576  6976.12  82.7855
 49.8556  6934.98  82.5684
 50.0536  6967.24  83.2087
 50.2516  6950.77  83.2408
 50.4496  6875.62  82.4495
 50.6476  6763.71  81.4614
 50.8456  6845.87  82.032
 51.0436  6728.24  81.7703
 51.2416  6756.13  81.6115
 51.4396  6664.38  81.4515
 51.6376  6685.91  81.4129
 51.8356  6616  80.62
 52.0336  6598.31  81.0115
 52.2316  6503.82  80.779
 52.4296  6663.75  81.4518
 52.6276  6606.92  81.2258
 52.8256  6698.98  81.3356
 53.0236  6505.31  80.806
 53.2216  6490.78  80.7516
 53.4196  6270.17  79.2868
 53.6176  6457.24  80.9425
 53.8156  6398.88  80.2506
 54.0136  6445.5  80.7085
 54.2116  6376.49  79.941
 54.4096  6412.85  80.2182
 54.6076  6357.4  80.222
 54.8056  6355.64  79.9986
 55.0036  6313.86  80.1286
 55.2016  6293.43  79.5422
 55.3996  6321.28  79.6907
 55.5976  6338.45  79.9851
 55.7956  6306.2  79.5896
 55.9936  6319.55  79.8127
 56.1916  6304.82  79.7381
 56.3896  6370.46  80.1433
 56.5876  6201.08  79.6252
 56.7856  6265.77  79.521
 56.9836  6174.84  78.7245
 57.1816  6250.04  79.5836
 57.3796  6214.81  79.1592
 57.5776  6310.51  79.6924
 57.7756  6095.55  78.9545
 57.9736  6124.33  78.8184
 58.1716  6256.55  79.9006
 58.3696  6234.98  79.5191
 58.5676  6244.37  79.048
 58.7656  6231.27  79.6453
 58.9636  6249.87  79.7985
 59.1616  6302.81  80.2552
 59.3596  6333.04  79.6913
 59.5576  6482.02  80.6822
 59.7556  6366.7  80.3906
 59.9536  6296.31  79.8418
 60.1516  6186.95  80.0043
 60.1996  0.0000000E+00  0.0000000E+00