File: docs/examples/opeando_xrd/IS17_D/Data/IS17_D/17_Db_f00030.xye
# /beamlines/bl04/projects/cycle2025-II/20250340211-lsimonelli/DATA/IS17_D/17_Db_f00030.xye : mythproc.py merge -s 0.006 -l 0.5 -f /beamlines/bl04/inhouse/ff/FlatField/ff_20Nov2024rod8mm60s_17keV.raw -b True -c true -o xye /beamlines/bl04/projects/cycle2025-II/20250340211-lsimonelli/DATA/IS17_D/17_Db_00030.dat
# IsMon = [6772664, 6775263, 6774113]  IsPos = [-1.5000, -2.4885, -3.4986]
# Wave = 0.4962  CalPath /beamlines/bl04/projects/cycle2025-II/20250340211-lsimonelli/DATA/Align/Si_Pos1_25keV_f00001.cal
# Date = 2025-09-24_02:02:11 Dt = 4.8000  Bin = 0.0060  <imon> = 6774013 +/- 1063 (Min/Max) 6772664 / 6775263
# icurr 252.0424  mocoIn 1.7201E-05  mocoOut 0.8069  i15 7.09193e+06  imon 6.77401e+06  i7 4.3333  iEMpd_timer 4.8000  iEMpd_1 3.5685E-08  iEMpd_2 7.7911E-08  iEMpd_3 1.6828E-08  iEMpd_4 4.7081E-08  iEMhp_timer 4.8000  iEMhp_1 4.9254E-06  iEMhp_2 -2.5148E-08  iEMhp_3 -2.2398E-08  iEMhp_4 -2.1195E-08
#      9776
 1.7416  70065.8  264.802
 1.9396  48349.8  220.256
 2.1376  35215.6  187.969
 2.3356  31337.5  176.945
 2.5336  29057.9  170.987
 2.7316  26809.2  164.339
 2.9296  25707.3  161.084
 3.1276  25121.8  158.781
 3.3256  24458.6  156.324
 3.5236  26043.4  161.26
 3.7216  23748.2  155.098
 3.9196  23437.4  153.291
 4.1176  23351.9  152.797
 4.3156  24231.3  155.816
 4.5136  26335.7  161.417
 4.7116  27591.1  166.349
 4.9096  26869  163.607
 5.1076  26882.6  164.238
 5.3056  26951.2  164.046
 5.5036  26458.6  162.582
 5.7016  26913.7  163.923
 5.8996  27425.8  164.705
 6.0976  28276.4  168.645
 6.2956  28334.6  168.171
 6.4936  29155.1  169.787
 6.6916  29346.4  171.315
 6.8896  29959.2  172.947
 7.0876  31472  177.924
 7.2856  30795.6  175.149
 7.4836  31071  175.283
 7.6816  31943.6  178.233
 7.8796  32643.8  180.192
 8.0776  33942.9  184.705
 8.2756  35396.7  187.264
 8.4736  36341.4  189.556
 8.6716  35392.1  187.671
 8.8696  36181.4  190.268
 9.0676  35285.1  187.225
 9.2656  34382.7  185.499
 9.4636  33145.9  180.629
 9.6616  32360.6  179.184
 9.8596  31855.2  177.237
 10.0576  29847.5  172.2
 10.2556  29258.2  170.944
 10.4536  28259.2  167.603
 10.6516  27797.8  166.445
 10.8496  26681.3  162.496
 11.0476  25555  158.991
 11.2456  24916.6  157.549
 11.4436  25255.7  157.814
 11.6416  25408.3  158.627
 11.8396  24111  154.72
 12.0376  23405.3  152.083
 12.2356  23274.5  152.106
 12.4336  23104.6  151.076
 12.6316  22827.5  150.43
 12.8296  22954.8  150.47
 13.0276  23437.5  152.248
 13.2256  23592.4  153.109
 13.4236  23606.8  152.928
 13.6216  23759.4  153.416
 13.8196  25996.6  159.897
 14.0176  22930.2  150.789
 14.2156  22415.9  148.143
 14.4136  21426.6  146.195
 14.6116  21256  144.821
 14.8096  20509.2  142.241
 15.0076  19614.5  142.923
 15.2056  18839.6  135.946
 15.4036  17673.2  132.478
 15.6016  17345.5  130.355
 15.7996  17035.7  129.453
 15.9976  16827.6  131.503
 16.1956  16486.1  128.087
 16.3936  16238.7  126.322
 16.5916  15711.3  124.878
 16.7896  15794.5  125.268
 16.9876  15629.1  126.033
 17.1856  15370.8  123.399
 17.3836  15118  122.297
 17.5816  14647  120.845
 17.7796  14692  120.968
 17.9776  14078.5  119.163
 18.1756  14409.2  119.325
 18.3736  14057.3  118.326
 18.5716  13969.6  117.719
 18.7696  13851.9  116.792
 18.9676  13637.2  115.69
 19.1656  13412  115.305
 19.3636  13258.9  114.829
 19.5616  13259.9  114.998
 19.7596  13702.5  116.313
 19.9576  13730.1  116.466
 20.1556  13850.9  117.501
 20.3536  13163.5  113.95
 20.5516  12861.5  113.071
 20.7496  12716.4  112.283
 20.9476  12640.8  111.796
 21.1456  12516.2  111.556
 21.3436  12452.3  111.225
 21.5416  12491.5  111.417
 21.7396  12294.7  110.378
 21.9376  12084  109.209
 22.1356  12275.9  110.22
 22.3336  11925.7  108.865
 22.5316  11975.8  109.202
 22.7296  11923.5  108.344
 22.9276  11847.6  108.649
 23.1256  12081.2  109.204
 23.3236  12163.7  110.148
 23.5216  12133.9  109.653
 23.7196  12250.8  110.347
 23.9176  12192.7  109.629
 24.1156  11955.4  109.008
 24.3136  11593.3  108.13
 24.5116  11590.1  107.636
 24.7096  11352.1  106.338
 24.9076  11253.9  105.921
 25.1056  10896.3  104.409
 25.3036  10550.6  102.523
 25.5016  10688.3  103.23
 25.6996  10642.1  102.601
 25.8976  10706.5  103.343
 26.0956  10554  102.611
 26.2936  10569.5  102.348
 26.4916  10813  103.382
 26.6896  10335.2  101.364
 26.8876  10349  101.299
 27.0856  10268  100.918
 27.2836  10100.1  100.177
 27.4816  9900.38  98.9697
 27.6796  10006  99.8463
 27.8776  10150.5  100.432
 28.0756  9752.99  98.7307
 28.2736  9748.91  98.2984
 28.4716  9586.51  97.5292
 28.6696  9738.63  98.1485
 28.8676  9414.3  96.8427
 29.0656  9386.77  96.6748
 29.2636  9455.38  96.7483
 29.4616  9058.53  94.9484
 29.6596  9213.3  95.3318
 29.8576  8864.88  94.1716
 30.0556  9002.47  94.7705
 30.2536  8985.73  94.4919
 30.4516  9230.71  95.4177
 30.6496  9262.3  95.3289
 30.8476  9167.39  95.2765
 31.0456  9192.07  95.3577
 31.2436  9214.16  94.7419
 31.4416  8971.24  93.6637
 31.6396  9241.66  95.1112
 31.8376  9135.91  94.076
 32.0356  9015.03  94.0291
 32.2336  8975.94  93.2407
 32.4316  8729.65  92.3525
 32.6296  8606.51  91.475
 32.8276  8699.53  91.8259
 33.0256  8526.91  90.9642
 33.2236  8617.76  91.5967
 33.4216  8501.65  90.674
 33.6196  8495.43  90.9237
 33.8176  8604.23  91.6679
 34.0156  8483.62  90.6572
 34.2136  8521.06  90.8733
 34.4116  8229.76  89.4745
 34.6096  8372.75  90.1268
 34.8076  8344.02  90.3873
 35.0056  8184.84  89.1955
 35.2036  8426.84  90.7321
 35.4016  8112.92  88.9327
 35.5996  8115.64  88.9856
 35.7976  8114.73  89.2532
 35.9956  8261.37  89.7051
 36.1936  8194.56  89.19
 36.3916  8010.81  88.382
 36.5896  8014.18  89.8301
 36.7876  7854.63  87.8797
 36.9856  7751.05  87.3239
 37.1836  7689.58  86.1087
 37.3816  7760.01  86.8601
 37.5796  7916.84  89.4361
 37.7776  7969.54  88.122
 37.9756  7954.06  87.923
 38.1736  7984.59  88.2747
 38.3716  7825.02  87.6626
 38.5696  7768.6  87.6959
 38.7676  7671.17  86.6757
 38.9656  7810.63  87.0905
 39.1636  7752.72  87.011
 39.3616  7805.19  87.2665
 39.5596  7504.83  86.3826
 39.7576  7540.4  85.991
 39.9556  7712.98  86.6131
 40.1536  7731.62  86.9168
 40.3516  7678.03  86.7027
 40.5496  7670.91  86.6193
 40.7476  7650.41  86.7308
 40.9456  7740.96  86.9904
 41.1436  7848.4  87.3205
 41.3416  7570.12  86.0841
 41.5396  7667.96  86.4517
 41.7376  7613.25  86.3976
 41.9356  7641.43  86.4158
 42.1336  7850.65  87.7302
 42.3316  7594.5  86.4887
 42.5296  7607.88  86.0973
 42.7276  7661.86  86.6367
 42.9256  7583.98  86.0719
 43.1236  7533.16  85.882
 43.3216  7669.13  86.5034
 43.5196  7402.02  84.9459
 43.7176  7470.83  85.7298
 43.9156  7203.7  84.1033
 44.1136  7362.41  84.5838
 44.3116  7340.71  84.4758
 44.5096  7304.73  84.5691
 44.7076  7185.58  83.8036
 44.9056  7494.51  85.4646
 45.1036  7333.63  84.1635
 45.3016  7366.8  84.8547
 45.4996  7321.56  84.5342
 45.6976  7266.61  84.3945
 45.8956  7294.83  84.3636
 46.0936  7358.44  84.499
 46.2916  7382.12  84.8529
 46.4896  7392.38  84.9501
 46.6876  7338.77  85.3368
 46.8856  7258.42  84.2558
 47.0836  7159.14  83.8162
 47.2816  7050.13  83.0496
 47.4796  7165.42  83.8357
 47.6776  7136.71  84.6029
 47.8756  7160.29  83.9331
 48.0736  7172.31  84.4298
 48.2716  7053.47  83.5638
 48.4696  7268.41  84.4197
 48.6676  7166.23  84.4216
 48.8656  7206.31  84.3694
 49.0636  7223.72  84.4276
 49.2616  7065.02  83.5298
 49.4596  7226.01  84.0347
 49.6576  7047.75  83.2181
 49.8556  7166.07  83.9316
 50.0536  7122.44  84.1291
 50.2516  7046.66  83.783
 50.4496  7066.18  83.5768
 50.6476  7057.66  83.205
 50.8456  7027.73  83.1188
 51.0436  6883.24  82.705
 51.2416  6829.53  82.0583
 51.4396  6585.49  80.9722
 51.6376  6830.55  82.2851
 51.8356  6827.17  81.8855
 52.0336  6804.25  82.259
 52.2316  6681.17  81.8768
 52.4296  6785.42  82.214
 52.6276  6703.39  81.8245
 52.8256  6868.89  82.3833
 53.0236  6862.22  82.9811
 53.2216  6713.76  82.0941
 53.4196  6765.77  82.3435
 53.6176  6769.45  82.8621
 53.8156  6735.66  82.33
 54.0136  6436.7  80.6402
 54.2116  6606.7  81.3374
 54.4096  6435.42  80.3541
 54.6076  6372.94  80.3044
 54.8056  6410.1  80.2978
 55.0036  6510.56  81.2
 55.2016  6444.14  80.3452
 55.3996  6196.2  78.8796
 55.5976  6388.43  80.2696
 55.7956  6243.56  79.175
 55.9936  6434.73  80.5099
 56.1916  6211.67  79.1352
 56.3896  6014.49  77.8413
 56.5876  6130.12  79.1293
 56.7856  6050.49  78.1312
 56.9836  6211.16  78.9207
 57.1816  6265.39  79.6489
 57.3796  6029.48  77.9093
 57.5776  6118.8  78.415
 57.7756  6006.69  78.3443
 57.9736  6022.63  78.126
 58.1716  5954.96  77.9542
 58.3696  5742.65  76.3139
 58.5676  5807.46  76.2239
 58.7656  5706.33  76.2159
 58.9636  5686.47  76.114
 59.1616  5780  76.8595
 59.3596  5794.7  76.2418
 59.5576  5865.96  76.7647
 59.7556  5790.66  76.68
 59.9536  5767.14  76.4253
 60.1516  5775.38  77.3099
 60.1996  0.0000000E+00  0.0000000E+00