File: docs/examples/opeando_xrd/IS17_D/Data/IS17_D/17_Db_f00118.xye
# /beamlines/bl04/projects/cycle2025-II/20250340211-lsimonelli/DATA/IS17_D/17_Db_f00118.xye : mythproc.py merge -s 0.006 -l 0.5 -f /beamlines/bl04/inhouse/ff/FlatField/ff_20Nov2024rod8mm60s_17keV.raw -b True -c true -o xye /beamlines/bl04/projects/cycle2025-II/20250340211-lsimonelli/DATA/IS17_D/17_Db_00118.dat
# IsMon = [6741908, 6746441, 6744911]  IsPos = [-1.4999, -2.4884, -3.4988]
# Wave = 0.4962  CalPath /beamlines/bl04/projects/cycle2025-II/20250340211-lsimonelli/DATA/Align/Si_Pos1_25keV_f00001.cal
# Date = 2025-09-25_02:35:08 Dt = 4.8000  Bin = 0.0060  <imon> = 6744420 +/- 1883 (Min/Max) 6741908 / 6746441
# icurr 249.0603  mocoIn 1.6998E-05  mocoOut 0.7974  i15 7.06772e+06  imon 6.74442e+06  i7 2.6667  iEMpd_timer 4.8000  iEMpd_1 3.6059E-08  iEMpd_2 7.8624E-08  iEMpd_3 1.6864E-08  iEMpd_4 4.8813E-08  iEMhp_timer 4.8000  iEMhp_1 4.8680E-06  iEMhp_2 -2.2973E-08  iEMhp_3 -2.4498E-08  iEMhp_4 -2.1320E-08
#      9776
 1.7416  70026.9  264.751
 1.9396  48799.9  221.298
 2.1376  36116.1  190.374
 2.3356  32352.5  179.803
 2.5336  30150.9  174.188
 2.7316  27975.8  167.88
 2.9296  26817.2  164.529
 3.1276  26323.8  162.548
 3.3256  25291.8  158.967
 3.5236  26686.8  163.083
 3.7216  24446.9  157.37
 3.9196  23935.7  154.919
 4.1176  23976.5  154.834
 4.3156  24750.5  157.479
 4.5136  27037  163.553
 4.7116  27942.4  167.423
 4.9096  27371.8  165.132
 5.1076  27088.3  164.865
 5.3056  27239.9  165.043
 5.5036  27068.9  164.425
 5.7016  27433.8  165.5
 5.8996  27919.9  166.183
 6.0976  28876  170.421
 6.2956  28877.4  169.769
 6.4936  29435.5  170.601
 6.6916  30017.1  173.278
 6.8896  30702.2  175.089
 7.0876  31978.7  179.446
 7.2856  31771.5  177.904
 7.4836  32311.8  178.751
 7.6816  32798.7  180.598
 7.8796  33838.2  183.445
 8.0776  35051.3  187.688
 8.2756  36803.8  190.938
 8.4736  37529.4  192.617
 8.6716  36702.3  191.104
 8.8696  37821.5  194.539
 9.0676  36875.2  191.412
 9.2656  35881.1  189.514
 9.4636  34960.3  185.51
 9.6616  34299.1  184.481
 9.8596  33496.4  181.754
 10.0576  31511.2  176.946
 10.2556  30449.6  174.395
 10.4536  29378.7  170.904
 10.6516  28461.9  168.419
 10.8496  27570.1  165.176
 11.0476  26939.2  163.289
 11.2456  26045.4  161.091
 11.4436  26550.8  161.814
 11.6416  26749  162.759
 11.8396  25102.4  157.883
 12.0376  24502.3  155.622
 12.2356  23974.2  154.343
 12.4336  23964.5  153.868
 12.6316  23945.3  154.077
 12.8296  24072.9  154.092
 13.0276  24399.9  155.341
 13.2256  24635  156.463
 13.4236  24560.5  155.99
 13.6216  24745.5  156.577
 13.8196  26812.3  162.451
 14.0176  23993.7  154.252
 14.2156  23565.2  151.897
 14.4136  22424.7  149.564
 14.6116  22065  147.554
 14.8096  21191.6  144.582
 15.0076  20355.4  145.6
 15.2056  19450.7  138.129
 15.4036  18311.1  134.839
 15.6016  18158.9  133.371
 15.7996  17725.7  132.039
 15.9976  17490.4  134.076
 16.1956  17216.8  130.911
 16.3936  16729.8  128.205
 16.5916  16466.1  127.856
 16.7896  16370.4  127.533
 16.9876  16367.2  128.991
 17.1856  16214.6  126.746
 17.3836  15546.5  124.02
 17.5816  15258  123.343
 17.7796  15271  123.324
 17.9776  14734.4  121.914
 18.1756  14773.5  120.824
 18.3736  14370.7  119.636
 18.5716  14264.7  118.958
 18.7696  14313.1  118.722
 18.9676  14271.6  118.348
 19.1656  13813.4  117.019
 19.3636  13788.6  117.097
 19.5616  13820.8  117.41
 19.7596  14054  117.8
 19.9576  14414.6  119.339
 20.1556  14569.4  120.512
 20.3536  13801.5  116.684
 20.5516  13516.7  115.914
 20.7496  13084  113.984
 20.9476  13191.4  114.209
 21.1456  12936.6  113.421
 21.3436  12899.3  113.197
 21.5416  12786.6  112.726
 21.7396  12737.8  112.352
 21.9376  12759.4  112.22
 22.1356  12689  112.027
 22.3336  12384.8  110.952
 22.5316  12426.4  111.228
 22.7296  12391  110.447
 22.9276  12146.1  110.007
 23.1256  12614  111.584
 23.3236  12767.4  112.851
 23.5216  12585.4  111.681
 23.7196  12382.2  110.731
 23.9176  12498.4  110.996
 24.1156  12228.7  110.252
 24.3136  11888.8  109.505
 24.5116  12174.9  110.329
 24.7096  11585.1  107.433
 24.9076  11601.4  107.545
 25.1056  11331.1  106.75
 25.3036  11021.2  104.79
 25.5016  11051.4  104.976
 25.6996  11000.2  104.313
 25.8976  11051.1  104.986
 26.0956  10834.1  103.96
 26.2936  10946.7  104.16
 26.4916  11113.2  104.815
 26.6896  10763.3  103.453
 26.8876  10756  103.275
 27.0856  10554.1  102.353
 27.2836  10329.6  101.154
 27.4816  10376.6  101.324
 27.6796  10243.5  101.029
 27.8776  10460  101.956
 28.0756  10086.3  100.4
 28.2736  9981.5  99.4656
 28.4716  9894.43  99.0866
 28.6696  9958.27  99.2443
 28.8676  9706.43  98.3367
 29.0656  9656.52  98.0542
 29.2636  9816.13  98.6528
 29.4616  9323.86  96.3243
 29.6596  9454.76  96.5679
 29.8576  9170.76  95.7767
 30.0556  9287.31  96.2627
 30.2536  9463.55  96.9686
 30.4516  9465.09  96.6233
 30.6496  9500.95  96.5506
 30.8476  9548.5  97.2329
 31.0456  9570.74  97.3152
 31.2436  9383.9  95.6199
 31.4416  9305.45  95.3969
 31.6396  9389.04  95.8736
 31.8376  9335.42  95.1216
 32.0356  9111.05  94.5262
 32.2336  9285.46  94.8466
 32.4316  8963.56  93.5766
 32.6296  8948.17  93.3354
 32.8276  8949.57  93.1332
 33.0256  8841.31  92.6299
 33.2236  9039.64  93.8104
 33.4216  8926.78  92.9084
 33.6196  8925.32  93.1957
 33.8176  8855.72  93.0048
 34.0156  8709.07  91.8576
 34.2136  8772.21  92.2023
 34.4116  8541.42  91.1504
 34.6096  8651.43  91.6162
 34.8076  8488.66  91.1651
 35.0056  8611.95  91.4967
 35.2036  8743.11  92.4206
 35.4016  8429.13  90.6498
 35.5996  8429.44  90.6928
 35.7976  8460.61  91.1287
 35.9956  8669.01  91.8852
 36.1936  8544.59  91.0752
 36.3916  8383.56  90.4148
 36.5896  8291.39  90.9048
 36.7876  8041.81  88.9158
 36.9856  7987.04  88.6401
 37.1836  8058.09  88.1448
 37.3816  8019.32  88.2964
 37.5796  8076.42  90.3343
 37.7776  8207.21  89.427
 37.9756  8249.27  89.543
 38.1736  8288.88  89.9447
 38.3716  8126.71  89.3293
 38.5696  7896.52  88.419
 38.7676  7886.35  87.8846
 38.9656  7972.14  87.9798
 39.1636  8098.25  88.962
 39.3616  7936.26  87.9931
 39.5596  7787.54  87.9989
 39.7576  7791.7  87.4164
 39.9556  7865.51  87.4696
 40.1536  7956.92  88.1734
 40.3516  8015.96  88.5081
 40.5496  7983.73  88.5909
 40.7476  8001.77  88.694
 40.9456  8128.27  89.1423
 41.1436  8070.68  88.5485
 41.3416  7819.08  87.4874
 41.5396  7954.59  88.0533
 41.7376  7910.27  88.0613
 41.9356  7900.49  87.8704
 42.1336  8059.84  88.9062
 42.3316  7774.27  87.5108
 42.5296  7865.17  87.5327
 42.7276  7944.97  88.2121
 42.9256  7802.2  87.3024
 43.1236  7931.99  88.1273
 43.3216  7929.68  87.8638
 43.5196  7818.06  87.3011
 43.7176  7598.9  86.4595
 43.9156  7564.57  86.1763
 44.1136  7597.89  85.9222
 44.3116  7534.86  85.5779
 44.5096  7612  86.3261
 44.7076  7646.63  86.4503
 44.9056  7797.1  87.1745
 45.1036  7696.52  86.2328
 45.3016  7646.71  86.4591
 45.4996  7593.56  86.0917
 45.6976  7418.46  85.2732
 45.8956  7578.16  85.9846
 46.0936  7598.05  86.1095
 46.2916  7539.68  85.7539
 46.4896  7605.16  86.1666
 46.6876  7463.38  86.0673
 46.8856  7473.16  85.3768
 47.0836  7467.05  85.6046
 47.2816  7500.09  85.6652
 47.4796  7527.75  85.9376
 47.6776  7282.19  85.4745
 47.8756  7284.6  84.6561
 48.0736  7426.14  85.9306
 48.2716  7268.91  84.8302
 48.4696  7441.21  85.4209
 48.6676  7420.23  85.8977
 48.8656  7390.12  85.4544
 49.0636  7459.7  85.791
 49.2616  7220.59  84.4464
 49.4596  7367.18  84.8496
 49.6576  7288.81  84.6193
 49.8556  7276.01  84.571
 50.0536  7397.34  85.7348
 50.2516  7322.87  85.4361
 50.4496  7310.28  85.0085
 50.6476  7400.54  85.2101
 50.8456  7209.98  84.1915
 51.0436  7126.78  84.1494
 51.2416  7125.56  83.8149
 51.4396  7038.09  83.7047
 51.6376  7030  83.4717
 51.8356  7017.33  83.0161
 52.0336  7024.11  83.5871
 52.2316  7032.16  84.0052
 52.4296  6906.53  82.9459
 52.6276  6933.14  83.2165
 52.8256  7044.36  83.4312
 53.0236  7026.99  83.9768
 53.2216  7039.87  84.0908
 53.4196  6933.99  83.3459
 53.6176  6913.63  83.7421
 53.8156  6900.24  83.3278
 54.0136  6718.43  82.3878
 54.2116  6877.19  82.9906
 54.4096  6645.94  81.648
 54.6076  6675.94  82.184
 54.8056  6522.17  80.9955
 55.0036  6641.08  82.1628
 55.2016  6709.14  82.0749
 55.3996  6456.92  80.52
 55.5976  6497.15  80.9639
 55.7956  6417.35  80.278
 55.9936  6578.89  81.3988
 56.1916  6447.91  80.6337
 56.3896  6345.41  79.9679
 56.5876  6290.79  80.1683
 56.7856  6327.93  79.9039
 56.9836  6470.96  80.5741
 57.1816  6430.68  80.6893
 57.3796  6313.13  79.7607
 57.5776  6286.96  79.4812
 57.7756  6217.89  79.7172
 57.9736  6207.38  79.3319
 58.1716  6165.73  79.3218
 58.3696  6014.53  78.0915
 58.5676  6076.85  77.9716
 58.7656  6040.03  78.409
 58.9636  6048  78.4886
 59.1616  5935.99  77.8863
 59.3596  5933.34  77.1458
 59.5576  6002.98  77.6539
 59.7556  5946.9  77.7053
 59.9536  6106.44  78.639
 60.1516  5892.92  78.0904
 60.1996  0.0000000E+00  0.0000000E+00