File: docs/examples/opeando_xrd/IS17_D/Data/IS17_D/17_Da_f00015.xye
# /beamlines/bl04/projects/cycle2025-II/20250340211-lsimonelli/DATA/IS17_D/17_Da_f00015.xye : mythproc.py merge -s 0.006 -l 0.5 -f /beamlines/bl04/inhouse/ff/FlatField/ff_20Nov2024rod8mm60s_17keV.raw -b True -c true -o xye /beamlines/bl04/projects/cycle2025-II/20250340211-lsimonelli/DATA/IS17_D/17_Da_00015.dat
# IsMon = [6773868, 6773509, 6776858]  IsPos = [-1.5000, -2.4885, -3.4986]
# Wave = 0.4962  CalPath /beamlines/bl04/projects/cycle2025-II/20250340211-lsimonelli/DATA/Align/Si_Pos1_25keV_f00001.cal
# Date = 2025-09-23_21:42:53 Dt = 4.8000  Bin = 0.0060  <imon> = 6774745 +/- 1501 (Min/Max) 6773509 / 6776858
# icurr 251.9128  mocoIn 1.7187E-05  mocoOut 0.8070  i15 7.09117e+06  imon 6.77474e+06  i7 3.6667  iEMpd_timer 4.8000  iEMpd_1 3.5328E-08  iEMpd_2 7.6774E-08  iEMpd_3 1.7399E-08  iEMpd_4 4.7617E-08  iEMhp_timer 4.8000  iEMhp_1 4.9244E-06  iEMhp_2 -2.4080E-08  iEMhp_3 -2.3690E-08  iEMhp_4 -2.2044E-08
#      9776
 1.7416  67496  259.891
 1.9396  43367.4  208.597
 2.1376  30270.7  174.267
 2.3356  26990  164.207
 2.5336  29747.9  172.999
 2.7316  23899.3  155.171
 2.9296  22668.4  151.282
 3.1276  21966.6  148.482
 3.3256  21807.8  147.636
 3.5236  23738.2  153.985
 3.7216  21822.7  148.688
 3.9196  21651.4  147.356
 4.1176  20940.8  144.702
 4.3156  22502  150.152
 4.5136  25674.8  159.392
 4.7116  26230.9  162.218
 4.9096  25460.7  159.271
 5.1076  24765.4  157.637
 5.3056  25280.9  158.904
 5.5036  24409.3  156.152
 5.7016  25118  158.362
 5.8996  25497.8  158.796
 6.0976  26459.3  163.158
 6.2956  26865.2  163.762
 6.4936  27721.7  165.563
 6.6916  28085.1  167.619
 6.8896  29097.8  170.475
 7.0876  30098.2  174.013
 7.2856  29747.6  172.16
 7.4836  30662.9  174.139
 7.6816  31054.3  175.766
 7.8796  32621.2  180.135
 8.0776  37372.3  193.809
 8.2756  37261.6  192.116
 8.4736  36695.6  190.474
 8.6716  36242.8  189.931
 8.8696  37538.9  193.768
 9.0676  36631.6  190.769
 9.2656  33407  182.844
 9.4636  33383.7  181.226
 9.6616  32604.6  179.849
 9.8596  31216.2  175.484
 10.0576  29703.9  171.832
 10.2556  28459.8  168.611
 10.4536  34574.1  185.418
 10.6516  35711.5  188.663
 10.8496  26430.1  161.714
 11.0476  26808.9  162.854
 11.2456  30179.7  173.411
 11.4436  25499.8  158.575
 11.6416  24999.7  157.365
 11.8396  23756.3  153.605
 12.0376  23263.7  151.632
 12.2356  25386  158.865
 12.4336  24197.9  154.613
 12.6316  22622.1  149.753
 12.8296  23338.9  151.754
 13.0276  23657.4  152.957
 13.2256  23237.7  151.953
 13.4236  23530.8  152.681
 13.6216  23307  151.972
 13.8196  24387.5  155.224
 14.0176  23132.6  151.453
 14.2156  22701.5  149.104
 14.4136  21107.7  145.104
 14.6116  21106.8  144.326
 14.8096  20205.4  141.191
 15.0076  19464.5  142.314
 15.2056  18810.1  135.842
 15.4036  18199.7  134.435
 15.6016  17543.4  131.098
 15.7996  17475.7  131.112
 15.9976  16568.5  130.538
 16.1956  16193.1  126.966
 16.3936  15788.6  124.569
 16.5916  15837.7  125.383
 16.7896  15919.1  125.764
 16.9876  15531  125.659
 17.1856  15465.6  123.799
 17.3836  14443.4  119.542
 17.5816  14330.2  119.543
 17.7796  14663.3  120.858
 17.9776  14762.3  122.042
 18.1756  16333.9  127.013
 18.3736  15938.4  126.006
 18.5716  14121.7  118.36
 18.7696  14172  118.149
 18.9676  13508  115.157
 19.1656  13559.7  115.924
 19.3636  13528.8  115.994
 19.5616  13571.9  116.34
 19.7596  13361.2  114.856
 19.9576  14038.6  117.784
 20.1556  13098.5  114.277
 20.3536  13044.3  113.435
 20.5516  12729.4  112.488
 20.7496  12524.4  111.433
 20.9476  13254.7  114.479
 21.1456  13362.3  115.271
 21.3436  12571.9  111.767
 21.5416  12407.5  111.025
 21.7396  12236.2  110.11
 21.9376  12391.3  110.58
 22.1356  12757.6  112.354
 22.3336  12661.4  112.175
 22.5316  12184.9  110.147
 22.7296  12119.7  109.225
 22.9276  12105.9  109.83
 23.1256  12547.5  111.29
 23.3236  12282.5  110.649
 23.5216  12217.7  110.026
 23.7196  11870.6  108.614
 23.9176  11851.1  108.071
 24.1156  11827.6  108.427
 24.3136  11637.2  108.348
 24.5116  11639.4  107.889
 24.7096  11472.6  106.93
 24.9076  11236.9  105.854
 25.1056  11265.6  106.176
 25.3036  10878.2  104.115
 25.5016  10986.4  104.661
 25.6996  10787.4  103.301
 25.8976  11013.7  104.817
 26.0956  10855.6  104.077
 26.2936  10703.9  103.002
 26.4916  10768.8  103.194
 26.6896  10330.6  101.36
 26.8876  10291.8  101.026
 27.0856  10489.7  102.004
 27.2836  10187.1  100.613
 27.4816  10267.3  100.781
 27.6796  9949.51  99.5841
 27.8776  10481.6  102.065
 28.0756  10039.5  100.175
 28.2736  10056.3  99.8448
 28.4716  9762.96  98.4221
 28.6696  9697.24  97.9362
 28.8676  9612.64  97.8582
 29.0656  9476.34  97.1399
 29.2636  9493.61  96.9411
 29.4616  9254.86  95.9708
 29.6596  9501.35  96.8117
 29.8576  9147.69  95.6647
 30.0556  9541.09  97.5766
 30.2536  9377.97  96.5339
 30.4516  9218.28  95.3676
 30.6496  9165.12  94.8231
 30.8476  9194.72  95.4121
 31.0456  9191.12  95.3579
 31.2436  9000.26  93.6459
 31.4416  8806.4  92.8123
 31.6396  9491.3  96.4019
 31.8376  9072.64  93.8043
 32.0356  8994.9  93.9604
 32.2336  8858.26  92.6392
 32.4316  8813.29  92.8009
 32.6296  8709.01  92.0233
 32.8276  8847.64  92.5856
 33.0256  8686.84  91.8279
 33.2236  8613.42  91.5773
 33.4216  8736.37  91.9202
 33.6196  8571.63  91.3433
 33.8176  8715.5  92.2703
 34.0156  8571.99  91.118
 34.2136  8506.31  90.8146
 34.4116  8384.11  90.308
 34.6096  8397.02  90.2566
 34.8076  8279.26  90.0258
 35.0056  8382.76  90.2797
 35.2036  8314.77  90.1173
 35.4016  8346.47  90.2118
 35.5996  8142.7  89.1398
 35.7976  8135.12  89.3712
 35.9956  8193.02  89.3384
 36.1936  8249.3  89.5173
 36.3916  8038.82  88.5379
 36.5896  8291.4  91.3635
 36.7876  8147.15  89.5037
 36.9856  7943.46  88.4049
 37.1836  8202.44  88.9372
 37.3816  8077.9  88.6155
 37.5796  7823.61  88.9066
 37.7776  7847.28  87.4279
 37.9756  7762.4  86.8447
 38.1736  8205.99  89.4913
 38.3716  7952.14  88.3662
 38.5696  7867.11  88.2743
 38.7676  7765.15  87.2031
 38.9656  7755.74  86.8029
 39.1636  7762.49  87.0669
 39.3616  7843.69  87.4795
 39.5596  7649.5  87.2196
 39.7576  7761.9  87.2417
 39.9556  7791.36  87.0542
 40.1536  7849.29  87.5759
 40.3516  7871.09  87.7886
 40.5496  7792.9  87.3141
 40.7476  7767.96  87.3914
 40.9456  7905.11  87.9162
 41.1436  7865.49  87.415
 41.3416  7750.16  87.102
 41.5396  7737.89  86.8424
 41.7376  7609.98  86.3816
 41.9356  7763.11  87.1104
 42.1336  7769.02  87.2854
 42.3316  7710.64  87.1566
 42.5296  7583.08  85.9561
 42.7276  7774.5  87.2741
 42.9256  7714.37  86.8045
 43.1236  7595.43  86.2405
 43.3216  7660.62  86.4661
 43.5196  7450.86  85.2403
 43.7176  7551.58  86.198
 43.9156  7387.8  85.1712
 44.1136  7377.62  84.6728
 44.3116  7375.19  84.6661
 44.5096  7318.61  84.6409
 44.7076  7434.29  85.2476
 44.9056  7245.8  84.028
 45.1036  7266.21  83.7795
 45.3016  7215.26  83.977
 45.4996  7218.16  83.9326
 45.6976  7062.54  83.1904
 45.8956  7214.85  83.9166
 46.0936  7284.55  84.0818
 46.2916  7199.67  83.8126
 46.4896  7175.25  83.6989
 46.6876  7062.18  83.7384
 46.8856  7015.77  82.842
 47.0836  7006.98  82.9236
 47.2816  6818.35  81.683
 47.4796  6923.17  82.4017
 47.6776  6889.61  83.1346
 47.8756  6944.52  82.6532
 48.0736  6975.52  83.2714
 48.2716  6797.55  82.0368
 48.4696  6852.76  81.976
 48.6676  6745.2  81.9015
 48.8656  6862.29  82.3377
 49.0636  6878.35  82.3844
 49.2616  6680.43  81.2267
 49.4596  6729.06  81.0912
 49.6576  6771.39  81.5605
 49.8556  6651.2  80.8614
 50.0536  6692.73  81.5523
 50.2516  6563.84  80.8691
 50.4496  6623.11  80.9201
 50.6476  6655.28  80.8051
 50.8456  6592.7  80.5029
 51.0436  6491.81  80.321
 51.2416  6418.83  79.5472
 51.4396  6328.19  79.3703
 51.6376  6419.14  79.7697
 51.8356  6416.19  79.3911
 52.0336  6263.47  78.9315
 52.2316  6273.94  79.3363
 52.4296  6336.85  79.4314
 52.6276  6258.34  79.0475
 52.8256  6343.5  79.1478
 53.0236  6203.4  78.9093
 53.2216  6054.4  77.9607
 53.4196  6086.38  78.121
 53.6176  6071.78  78.4913
 53.8156  6074.62  78.1882
 54.0136  6169.41  78.9597
 54.2116  6096.49  78.1651
 54.4096  6118.37  78.3607
 54.6076  6054.28  78.2878
 54.8056  5993.6  77.6859
 55.0036  6004.63  78.0178
 55.2016  6011.38  77.6681
 55.3996  6067.62  78.0732
 55.5976  6005.13  77.8549
 55.7956  6118.01  78.4042
 55.9936  5970.53  77.5815
 56.1916  6028.97  77.9735
 56.3896  5968.92  77.5806
 56.5876  5949.06  77.9839
 56.7856  5926.49  77.3395
 56.9836  5918.6  77.07
 57.1816  5992.22  77.9229
 57.3796  6003.64  77.7725
 57.5776  6022.39  77.8506
 57.7756  5905.74  77.716
 57.9736  5915.12  77.4616
 58.1716  5929.82  77.7944
 58.3696  5951.3  77.692
 58.5676  6015.7  77.5857
 58.7656  5968.05  77.9403
 58.9636  6144  79.1143
 59.1616  6052.51  78.6428
 59.3596  6065.94  77.9936
 59.5576  6110.01  78.3337
 59.7556  5990.77  77.9821
 59.9536  6003.31  77.9629
 60.1516  5965.89  78.563
 60.1996  0.0000000E+00  0.0000000E+00