File: docs/examples/opeando_xrd/IS17_D/Data/IS17_D/17_Da_f00034.xye
# /beamlines/bl04/projects/cycle2025-II/20250340211-lsimonelli/DATA/IS17_D/17_Da_f00034.xye : mythproc.py merge -s 0.006 -l 0.5 -f /beamlines/bl04/inhouse/ff/FlatField/ff_20Nov2024rod8mm60s_17keV.raw -b True -c true -o xye /beamlines/bl04/projects/cycle2025-II/20250340211-lsimonelli/DATA/IS17_D/17_Da_00034.dat
# IsMon = [6778679, 6781976, 6782622]  IsPos = [-1.5000, -2.4885, -3.4988]
# Wave = 0.4962  CalPath /beamlines/bl04/projects/cycle2025-II/20250340211-lsimonelli/DATA/Align/Si_Pos1_25keV_f00001.cal
# Date = 2025-09-24_03:02:35 Dt = 4.8000  Bin = 0.0060  <imon> = 6781092 +/- 1727 (Min/Max) 6778679 / 6782622
# icurr 251.8768  mocoIn 1.7185E-05  mocoOut 0.8066  i15 7.09734e+06  imon 6.78109e+06  i7 7.3333  iEMpd_timer 4.8000  iEMpd_1 3.4930E-08  iEMpd_2 7.8244E-08  iEMpd_3 1.5013E-08  iEMpd_4 4.7427E-08  iEMhp_timer 4.8000  iEMhp_1 4.9227E-06  iEMhp_2 -2.6639E-08  iEMhp_3 -2.3051E-08  iEMhp_4 -2.2451E-08
#      9776
 1.7416  71094.5  266.76
 1.9396  46050.1  214.97
 2.1376  32363.2  180.21
 2.3356  28701.6  169.353
 2.5336  26687.8  163.878
 2.7316  24906.7  158.405
 2.9296  24191.2  156.278
 3.1276  23707  154.26
 3.3256  23347.1  152.747
 3.5236  25333.5  159.074
 3.7216  23152.4  153.154
 3.9196  22542.8  150.363
 4.1176  22524.2  150.07
 4.3156  23775.4  154.343
 4.5136  26028.3  160.48
 4.7116  27215.2  165.233
 4.9096  26623.3  162.868
 5.1076  26303.1  162.463
 5.3056  26498.5  162.79
 5.5036  26367.6  162.37
 5.7016  26589.4  162.933
 5.8996  27248.2  164.156
 6.0976  27975.2  167.77
 6.2956  28337.4  168.181
 6.4936  29261.1  170.096
 6.6916  29472.5  171.711
 6.8896  30203.1  173.682
 7.0876  31292  177.435
 7.2856  30997.1  175.739
 7.4836  31190.7  175.63
 7.6816  32212.5  179.015
 7.8796  33415.6  182.31
 8.0776  34602.9  186.48
 8.2756  36689.7  190.641
 8.4736  37108.5  191.534
 8.6716  36291.7  190.045
 8.8696  35955  189.64
 9.0676  35589.8  188.053
 9.2656  34212.1  185.049
 9.4636  33889.1  182.593
 9.6616  33089.5  181.194
 9.8596  31879.4  177.335
 10.0576  29897.7  172.382
 10.2556  29184.8  170.742
 10.4536  28195.2  167.439
 10.6516  27338.1  165.059
 10.8496  26724.4  162.619
 11.0476  25891.3  160.037
 11.2456  25356.7  158.945
 11.4436  25577.3  158.814
 11.6416  25773.5  159.785
 11.8396  23878.9  154.004
 12.0376  23743.9  153.186
 12.2356  23392.6  152.493
 12.4336  23400.1  152.043
 12.6316  22933.2  150.784
 12.8296  23439.3  152.081
 13.0276  23953.2  153.91
 13.2256  23915.9  154.159
 13.4236  23865.2  153.761
 13.6216  23499.2  152.601
 13.8196  23722.5  153.09
 14.0176  23398  152.318
 14.2156  22741.3  149.228
 14.4136  21772.6  147.37
 14.6116  21421.7  145.398
 14.8096  20978.2  143.867
 15.0076  19790.7  143.492
 15.2056  19376.4  137.865
 15.4036  18487  135.487
 15.6016  18177.8  133.44
 15.7996  17660.7  131.799
 15.9976  16849.5  131.64
 16.1956  16441  127.945
 16.3936  15897.2  125.006
 16.5916  15962.8  125.89
 16.7896  15912.4  125.744
 16.9876  15790.5  126.705
 17.1856  15368.1  123.401
 17.3836  14976.5  121.725
 17.5816  14624.5  120.764
 17.7796  14431.7  119.898
 17.9776  14248.7  119.9
 18.1756  14377.4  119.17
 18.3736  14346.1  119.548
 18.5716  13968.9  117.717
 18.7696  14033.8  117.572
 18.9676  13694.2  115.952
 19.1656  13619.2  116.174
 19.3636  13414.7  115.504
 19.5616  13367.5  115.468
 19.7596  13594.9  115.862
 19.9576  13817.2  116.852
 20.1556  14200  118.98
 20.3536  13410.8  115.017
 20.5516  13073.7  114
 20.7496  12774.9  112.55
 20.9476  12695.4  112.044
 21.1456  12772.1  112.689
 21.3436  12680.6  112.246
 21.5416  12604.5  111.908
 21.7396  12434.3  111.001
 21.9376  12433.4  110.76
 22.1356  12427  111.014
 22.3336  12443.4  111.197
 22.5316  12433.9  111.263
 22.7296  12533.5  111.075
 22.9276  12256  110.499
 23.1256  12503.8  111.092
 23.3236  12395  111.178
 23.5216  12298.3  110.397
 23.7196  11948.8  108.98
 23.9176  12063.5  109.05
 24.1156  11895.1  108.746
 24.3136  11428  107.368
 24.5116  11677.7  108.063
 24.7096  11144.1  105.388
 24.9076  11122.9  105.314
 25.1056  10954.6  104.692
 25.3036  10817  103.822
 25.5016  10868.5  104.101
 25.6996  10713.3  102.946
 25.8976  10659.2  103.118
 26.0956  10731.2  103.479
 26.2936  10716.4  103.056
 26.4916  10782.1  103.252
 26.6896  10419.4  101.796
 26.8876  10269.8  100.92
 27.0856  10426  101.689
 27.2836  10156.8  100.309
 27.4816  10111.6  100.019
 27.6796  10026.7  99.969
 27.8776  9920.77  99.3024
 28.0756  9977.74  99.8618
 28.2736  9836.85  98.7488
 28.4716  9590.98  97.5534
 28.6696  9764.46  98.2786
 28.8676  9508.88  97.3212
 29.0656  9516.69  97.3466
 29.2636  9408.8  96.5122
 29.4616  9457.08  97.0108
 29.6596  9530.72  96.9563
 29.8576  9177.27  95.8135
 30.0556  9296  96.3046
 30.2536  9504.19  97.1719
 30.4516  9329.42  95.9483
 30.6496  9310.64  95.5789
 30.8476  9182.68  95.3581
 31.0456  9023.7  94.4909
 31.2436  9039.25  93.8496
 31.4416  8776.98  92.6527
 31.6396  9007.68  93.9108
 31.8376  8941.09  93.1205
 32.0356  8924.2  93.5856
 32.2336  8763.21  92.1442
 32.4316  8748.99  92.4574
 32.6296  8694.43  91.9451
 32.8276  8740.42  92.0226
 33.0256  8638.59  91.5718
 33.2236  8628.81  91.6621
 33.4216  8686.31  91.6533
 33.6196  8702.7  92.0358
 33.8176  8576.91  91.5296
 34.0156  8473.84  90.6019
 34.2136  8541.34  91.0044
 34.4116  8415.3  90.4722
 34.6096  8381.43  90.1676
 34.8076  8407.94  90.7281
 35.0056  8367.88  90.1984
 35.2036  8363.98  90.3713
 35.4016  8354.78  90.2544
 35.5996  8243.73  89.6899
 35.7976  8212.15  89.7914
 35.9956  8188.29  89.3099
 36.1936  8277.56  89.6685
 36.3916  8101.53  88.8752
 36.5896  7948.52  89.4489
 36.7876  8047.58  88.9507
 36.9856  7948.17  88.4233
 37.1836  7990.94  87.7778
 37.3816  8028.65  88.3445
 37.5796  7919.78  89.4483
 37.7776  7827.56  87.3389
 37.9756  7801.93  87.0736
 38.1736  7936.16  88.0115
 38.3716  7814.13  87.6062
 38.5696  7780.69  87.7827
 38.7676  7545.33  85.9689
 38.9656  7651.08  86.2123
 39.1636  7677.89  86.5969
 39.3616  7811.65  87.3075
 39.5596  7582.15  86.8429
 39.7576  7641.76  86.5568
 39.9556  7731.64  86.7194
 40.1536  7801.64  87.3115
 40.3516  7886.52  87.7979
 40.5496  7821.7  87.4795
 40.7476  7810.83  87.6394
 40.9456  7791.16  87.2697
 41.1436  7781.76  86.9529
 41.3416  7737.91  87.0331
 41.5396  7666.46  86.4472
 41.7376  7660.52  86.6655
 41.9356  7566.79  85.9959
 42.1336  7735.14  87.1005
 42.3316  7616.35  86.6203
 42.5296  7648.03  86.3187
 42.7276  7632.54  86.4758
 42.9256  7655.95  86.4768
 43.1236  7576.12  86.1342
 43.3216  7592.11  86.0807
 43.5196  7530.49  85.69
 43.7176  7429.64  85.4998
 43.9156  7428.91  85.4048
 44.1136  7429.93  84.9616
 44.3116  7359.08  84.5721
 44.5096  7390.38  85.0586
 44.7076  7387.02  84.9712
 44.9056  7310.28  84.4049
 45.1036  7165.62  83.204
 45.3016  7107.84  83.3539
 45.4996  7155.76  83.5757
 45.6976  6973.25  82.6668
 45.8956  7053.35  82.9703
 46.0936  7254.58  83.9045
 46.2916  7108.44  83.2761
 46.4896  7126.42  83.4184
 46.6876  7000.39  83.3731
 46.8856  6940.99  82.2895
 47.0836  6991.27  82.8343
 47.2816  6909.32  82.2213
 47.4796  6973.01  82.6985
 47.6776  6892.85  83.1504
 47.8756  6899.78  82.3858
 48.0736  6918.87  82.9515
 48.2716  6748.89  81.7442
 48.4696  6866.6  82.0568
 48.6676  6776.77  82.0846
 48.8656  6844.07  82.2228
 49.0636  6853.34  82.2332
 49.2616  6672.47  81.1746
 49.4596  6638.91  80.5384
 49.6576  6743.92  81.3943
 49.8556  6618.34  80.6625
 50.0536  6549.56  80.671
 50.2516  6611.94  81.1667
 50.4496  6622.53  80.914
 50.6476  6584.44  80.3745
 50.8456  6558.14  80.2841
 51.0436  6417.32  79.8501
 51.2416  6427.94  79.6023
 51.4396  6324.19  79.3452
 51.6376  6296.52  79.0004
 51.8356  6277.69  78.5258
 52.0336  6231.37  78.7314
 52.2316  6310.87  79.5789
 52.4296  6344.1  79.4815
 52.6276  6289.35  79.2444
 52.8256  6308.08  78.9392
 53.0236  6174.52  78.7241
 53.2216  6225.05  79.0505
 53.4196  6051.53  77.8932
 53.6176  6076.27  78.5193
 53.8156  6017.29  77.8194
 54.0136  6130.73  78.7185
 54.2116  6024.62  77.7059
 54.4096  6141.01  78.4964
 54.6076  6060.76  78.3296
 54.8056  6016.53  77.835
 55.0036  6043.92  78.2707
 55.2016  6136.99  78.4766
 55.3996  6039.81  77.8868
 55.5976  6022.98  77.9679
 55.7956  5978.53  77.4984
 55.9936  5998.94  77.7664
 56.1916  6053.07  78.1297
 56.3896  6069.69  78.2298
 56.5876  5908.98  77.7273
 56.7856  5908.72  77.2224
 56.9836  5882.3  76.8379
 57.1816  6036.41  78.2141
 57.3796  6004.62  77.8082
 57.5776  5949.45  77.3789
 57.7756  5922.11  77.8246
 57.9736  5895.06  77.3265
 58.1716  5981.97  78.1335
 58.3696  5928.66  77.5373
 58.5676  5970.43  77.2923
 58.7656  5932.78  77.7105
 58.9636  6100.98  78.8357
 59.1616  5968.27  78.0914
 59.3596  6127.23  78.3896
 59.5576  5999.07  77.6227
 59.7556  5832.76  76.9502
 59.9536  6050.22  78.2703
 60.1516  6020.51  78.9252
 60.1996  0.0000000E+00  0.0000000E+00