File: docs/examples/opeando_xrd/IS17_D/Data/IS17_D/17_Da_f00138.xye
# /beamlines/bl04/projects/cycle2025-II/20250340211-lsimonelli/DATA/IS17_D/17_Da_f00138.xye : mythproc.py merge -s 0.006 -l 0.5 -f /beamlines/bl04/inhouse/ff/FlatField/ff_20Nov2024rod8mm60s_17keV.raw -b True -c true -o xye /beamlines/bl04/projects/cycle2025-II/20250340211-lsimonelli/DATA/IS17_D/17_Da_00138.dat
# IsMon = [6775814, 6781025, 6779960]  IsPos = [-1.4999, -2.4884, -3.4988]
# Wave = 0.4962  CalPath /beamlines/bl04/projects/cycle2025-II/20250340211-lsimonelli/DATA/Align/Si_Pos1_25keV_f00001.cal
# Date = 2025-09-25_08:02:59 Dt = 4.8000  Bin = 0.0060  <imon> = 6778933 +/- 2248 (Min/Max) 6775814 / 6781025
# icurr 251.8910  mocoIn 1.7189E-05  mocoOut 0.8061  i15 7.09798e+06  imon 6.77893e+06  i7 4.3333  iEMpd_timer 4.8000  iEMpd_1 3.6035E-08  iEMpd_2 8.0067E-08  iEMpd_3 1.7813E-08  iEMpd_4 4.9256E-08  iEMhp_timer 4.8000  iEMhp_1 4.9231E-06  iEMhp_2 -2.6037E-08  iEMhp_3 -2.4815E-08  iEMhp_4 -2.0269E-08
#      9776
 1.7416  69643.1  264.036
 1.9396  45480.9  213.643
 2.1376  32401.2  180.325
 2.3356  28897.9  169.94
 2.5336  27417.6  166.113
 2.7316  25008  158.724
 2.9296  24030  155.755
 3.1276  23630.5  154.011
 3.3256  23252.6  152.433
 3.5236  25114.1  158.218
 3.7216  22860.6  152.184
 3.9196  22890.3  151.518
 4.1176  22371  149.566
 4.3156  23777.2  154.346
 4.5136  26510.1  161.955
 4.7116  27380.5  165.733
 4.9096  26430.7  162.276
 5.1076  26075.5  161.761
 5.3056  26626.9  163.185
 5.5036  26340.3  162.191
 5.7016  26919.4  163.942
 5.8996  27571.4  165.133
 6.0976  28233.5  168.547
 6.2956  28767.8  169.455
 6.4936  29420.9  170.558
 6.6916  29665.5  172.271
 6.8896  30669.5  175.024
 7.0876  31599.5  178.382
 7.2856  31485.8  177.118
 7.4836  32257.7  178.61
 7.6816  32948.9  181.049
 7.8796  34358.9  184.86
 8.0776  37307.6  193.629
 8.2756  38297.8  194.768
 8.4736  38509.4  195.105
 8.6716  37897.5  194.192
 8.8696  37974.8  194.909
 9.0676  37290.3  192.5
 9.2656  36105  190.106
 9.4636  35666.2  187.334
 9.6616  34798.4  185.822
 9.8596  33664.9  182.231
 10.0576  31985.6  178.29
 10.2556  30841.2  175.524
 10.4536  32679.3  180.259
 10.6516  33245.9  182.033
 10.8496  28458.6  167.811
 11.0476  28014.6  166.519
 11.2456  29117.4  170.318
 11.4436  27881  165.82
 11.6416  26620  162.39
 11.8396  25334  158.631
 12.0376  25159.8  157.71
 12.2356  25273.5  158.468
 12.4336  24832.1  156.63
 12.6316  24193.7  154.876
 12.8296  24610.8  155.834
 13.0276  25185.3  157.82
 13.2256  24822.5  157.044
 13.4236  24881.3  157.005
 13.6216  24666.4  156.35
 13.8196  25387.7  158.372
 14.0176  24300.7  155.229
 14.2156  23691.9  152.316
 14.4136  22578.2  150.072
 14.6116  22421.9  148.755
 14.8096  21456.2  145.498
 15.0076  20530.6  146.155
 15.2056  20107.3  140.437
 15.4036  19265.1  138.293
 15.6016  18841.9  135.844
 15.7996  18476.6  134.809
 15.9976  17478.1  134.061
 16.1956  17025.7  130.206
 16.3936  16889  128.853
 16.5916  16712.6  128.814
 16.7896  16699.3  128.814
 16.9876  16332.3  128.863
 17.1856  16292  127.049
 17.3836  15661.6  124.478
 17.5816  15393.8  123.897
 17.7796  15087.2  122.585
 17.9776  15301.3  124.254
 18.1756  15852.2  125.132
 18.3736  15710.1  125.094
 18.5716  14786.9  121.112
 18.7696  14849.2  120.939
 18.9676  14437.7  119.057
 19.1656  14411.3  119.507
 19.3636  14255.3  119.067
 19.5616  14234.4  119.155
 19.7596  14361.7  119.083
 19.9576  14909.7  121.39
 20.1556  13928.5  117.839
 20.3536  13845.1  116.858
 20.5516  13611.5  116.325
 20.7496  13352.4  115.149
 20.9476  13437.8  115.274
 21.1456  13697.7  116.707
 21.3436  13230.3  114.655
 21.5416  13065.7  113.943
 21.7396  13028.6  113.618
 21.9376  13106.1  113.726
 22.1356  13263.8  114.534
 22.3336  13091.2  114.065
 22.5316  12967.7  113.616
 22.7296  12774.1  112.128
 22.9276  12892.9  113.331
 23.1256  13220.9  114.228
 23.3236  12649.9  112.313
 23.5216  12796.2  112.607
 23.7196  12722.5  112.236
 23.9176  12584.1  111.382
 24.1156  12322.9  110.689
 24.3136  12079.9  110.385
 24.5116  12165.5  110.297
 24.7096  11940  109.084
 24.9076  11409  106.662
 25.1056  11357.5  106.882
 25.3036  11290  106.062
 25.5016  11448.8  106.847
 25.6996  11311.3  105.769
 25.8976  11261.8  105.997
 26.0956  11285.9  106.122
 26.2936  11169.4  105.209
 26.4916  11207.6  105.27
 26.6896  10915.7  104.192
 26.8876  10781.6  103.403
 27.0856  10906.1  104.051
 27.2836  10594.2  102.442
 27.4816  10650.8  102.651
 27.6796  10476.3  102.186
 27.8776  10650  102.888
 28.0756  10504.6  102.463
 28.2736  10400.2  101.536
 28.4716  10169.4  100.446
 28.6696  10133.4  100.117
 28.8676  10012  99.864
 29.0656  9861.08  99.0916
 29.2636  9937.12  99.2666
 29.4616  9796.08  98.7316
 29.6596  9736.97  97.9971
 29.8576  9755.68  98.7843
 30.0556  9786.59  98.8132
 30.2536  9934.1  99.3475
 30.4516  9728.51  97.9832
 30.6496  9746.46  97.7903
 30.8476  9680.47  97.9131
 31.0456  9482.14  96.8617
 31.2436  9456.09  95.9954
 31.4416  9273.17  95.231
 31.6396  9694.31  97.4232
 31.8376  9488.6  95.9237
 32.0356  9287.08  95.4692
 32.2336  9158.85  94.1965
 32.4316  9140.06  94.4975
 32.6296  9092.36  94.0913
 32.8276  9138.69  94.1027
 33.0256  9047.07  93.7071
 33.2236  9028.65  93.7672
 33.4216  9112.73  93.8863
 33.6196  9067.01  93.9389
 33.8176  8992.74  93.7228
 34.0156  8927  92.9871
 34.2136  8870.91  92.7449
 34.4116  8764.83  92.3263
 34.6096  8822.45  92.5063
 34.8076  8800.87  92.8151
 35.0056  8736.71  92.1647
 35.2036  8651.46  91.9266
 35.4016  8636.28  91.762
 35.5996  8508.58  91.1219
 35.7976  8540.7  91.5703
 35.9956  8555.98  91.2932
 36.1936  8536.89  91.0596
 36.3916  8418.71  90.5996
 36.5896  8468.74  91.8469
 36.7876  8400.66  90.8716
 36.9856  8215.14  89.8959
 37.1836  8297.1  89.4399
 37.3816  8412.59  90.4294
 37.5796  8155.83  90.7657
 37.7776  8126.11  88.9895
 37.9756  8187.8  89.2111
 38.1736  8253.01  89.7566
 38.3716  8212.26  89.8118
 38.5696  8067.37  89.3836
 38.7676  7929.02  88.1281
 38.9656  8085.66  88.6266
 39.1636  8002.84  88.4376
 39.3616  8137.32  89.1034
 39.5596  7980.53  89.0926
 39.7576  7915.65  88.1019
 39.9556  8142.51  88.9977
 40.1536  8220.35  89.6262
 40.3516  8161.48  89.3112
 40.5496  8078.69  89.1198
 40.7476  8127.9  89.3927
 40.9456  8259.52  89.8567
 41.1436  8097.2  88.6996
 41.3416  8117.19  89.1369
 41.5396  8074.62  88.7145
 41.7376  7988.85  88.5061
 41.9356  7972.46  88.2773
 42.1336  7982.93  88.4885
 42.3316  7950.89  88.5018
 42.5296  7941.24  87.9649
 42.7276  8000.92  88.5378
 42.9256  7992.1  88.3557
 43.1236  7877.92  87.8327
 43.3216  7907.91  87.7504
 43.5196  7755.89  86.9659
 43.7176  7804.5  87.6291
 43.9156  7547.91  86.0821
 44.1136  7660.67  86.2732
 44.3116  7711.12  86.5692
 44.5096  7685.2  86.7383
 44.7076  7653.27  86.4844
 44.9056  7515.98  85.5906
 45.1036  7525.54  85.2716
 45.3016  7526.65  85.7765
 45.4996  7443.8  85.2446
 45.6976  7393.6  85.128
 45.8956  7508.66  85.5994
 46.0936  7468.43  85.3833
 46.2916  7530.6  85.7126
 46.4896  7483.6  85.479
 46.6876  7384.96  85.6299
 46.8856  7306.74  84.4249
 47.0836  7267.67  84.4548
 47.2816  7151.04  83.6471
 47.4796  7221.67  84.1719
 47.6776  7173.54  84.8391
 47.8756  7207.56  84.1975
 48.0736  7133.55  84.2287
 48.2716  7038.37  83.4719
 48.4696  7192.86  83.9881
 48.6676  7149.55  84.3212
 48.8656  7104.48  83.7847
 49.0636  7094.87  83.6734
 49.2616  6895.97  82.5218
 49.4596  6960.82  82.4835
 49.6576  6925.49  82.485
 49.8556  6972.76  82.7933
 50.0536  6949.11  83.1011
 50.2516  6917.29  83.0451
 50.4496  6862.25  82.3631
 50.6476  6877.39  82.1432
 50.8456  6769.08  81.5792
 51.0436  6816.06  82.2938
 51.2416  6673.21  81.1055
 51.4396  6627.55  81.2217
 51.6376  6624.25  81.0237
 51.8356  6625.06  80.663
 52.0336  6581.94  80.9229
 52.2316  6491.18  80.7092
 52.4296  6663.78  81.4647
 52.6276  6581.65  81.075
 52.8256  6696.7  81.3343
 53.0236  6495.76  80.7456
 53.2216  6486.21  80.7207
 53.4196  6300.48  79.4793
 53.6176  6388.63  80.5104
 53.8156  6312.89  79.6963
 54.0136  6490.99  80.9958
 54.2116  6471.76  80.5348
 54.4096  6434.4  80.3453
 54.6076  6338.77  80.1051
 54.8056  6303.09  79.6655
 55.0036  6263.84  79.8083
 55.2016  6346.61  79.8772
 55.3996  6277.24  79.4023
 55.5976  6319.53  79.8638
 55.7956  6285.76  79.4697
 55.9936  6295.79  79.6691
 56.1916  6351.69  80.036
 56.3896  6250.99  79.3879
 56.5876  6225.69  79.7806
 56.7856  6261.76  79.4907
 56.9836  6195.74  78.8622
 57.1816  6285.56  79.8127
 57.3796  6274.48  79.532
 57.5776  6246.93  79.2879
 57.7756  6172.17  79.4473
 57.9736  6215.13  79.4021
 58.1716  6185.18  79.4493
 58.3696  6116.19  78.7469
 58.5676  6237.21  78.9977
 58.7656  6215.34  79.5361
 58.9636  6167.46  79.2628
 59.1616  6248.75  79.9003
 59.3596  6268.36  79.2912
 59.5576  6309.05  79.6058
 59.7556  6380.67  80.4863
 59.9536  6310.31  79.9379
 60.1516  6381.32  81.2588
 60.1996  0.0000000E+00  0.0000000E+00