File: docs/examples/opeando_xrd/IS17_D/Data/IS17_D/17_Da_f00001.xye
# /beamlines/bl04/projects/cycle2025-II/20250340211-lsimonelli/DATA/IS17_D/17_Da_f00001.xye : mythproc.py merge -s 0.006 -l 0.5 -f /beamlines/bl04/inhouse/ff/FlatField/ff_20Nov2024rod8mm60s_17keV.raw -b True -c true -o xye /beamlines/bl04/projects/cycle2025-II/20250340211-lsimonelli/DATA/IS17_D/17_Da_00001.dat
# IsMon = [6749354, 6746660, 6746966]  IsPos = [-1.5000, -2.4886, -3.4988]
# Wave = 0.4962  CalPath /beamlines/bl04/projects/cycle2025-II/20250340211-lsimonelli/DATA/Align/Si_Pos1_25keV_f00001.cal
# Date = 2025-09-23_17:48:41 Dt = 4.8000  Bin = 0.0060  <imon> = 6747660 +/- 1204 (Min/Max) 6746660 / 6749354
# icurr 250.5445  mocoIn 1.7091E-05  mocoOut 0.8020  i15 7.03743e+06  imon 6.74766e+06  i7 4.3333  iEMpd_timer 4.8000  iEMpd_1 3.5593E-08  iEMpd_2 7.8325E-08  iEMpd_3 1.7843E-08  iEMpd_4 4.9026E-08  iEMhp_timer 4.8000  iEMhp_1 4.8960E-06  iEMhp_2 -2.4094E-08  iEMhp_3 -2.3885E-08  iEMhp_4 -2.1364E-08
#      9776
 1.7416  70447.9  265.463
 1.9396  46197  215.248
 2.1376  32653  180.96
 2.3356  29105.6  170.489
 2.5336  27040.3  164.907
 2.7316  25490.5  160.238
 2.9296  24232.3  156.398
 3.1276  23750.3  154.378
 3.3256  23453.1  153.091
 3.5236  25463.6  159.463
 3.7216  23196  153.297
 3.9196  22543.2  150.362
 4.1176  22510.1  150.013
 4.3156  23843.1  154.565
 4.5136  25978.3  160.33
 4.7116  27219.8  165.25
 4.9096  26420.2  162.24
 5.1076  26166.5  162.029
 5.3056  26315.3  162.367
 5.5036  25950.5  161.081
 5.7016  26231.7  161.832
 5.8996  26936.6  163.216
 6.0976  27540.6  166.454
 6.2956  28263.5  167.974
 6.4936  29023.1  169.411
 6.6916  29451.7  171.648
 6.8896  30216.1  173.722
 7.0876  31359.7  177.615
 7.2856  31086.4  175.99
 7.4836  31463.7  176.397
 7.6816  32297.8  179.252
 7.8796  33704.6  183.116
 8.0776  35017  187.624
 8.2756  36853  191.089
 8.4736  37437.2  192.403
 8.6716  36294.2  190.077
 8.8696  36461.1  190.962
 9.0676  35203.9  187.012
 9.2656  34673.4  186.277
 9.4636  33996.8  182.89
 9.6616  33301.1  181.775
 9.8596  31926.2  177.452
 10.0576  30374.6  173.359
 10.2556  28708.4  169.323
 10.4536  28170.2  167.35
 10.6516  27117.7  164.382
 10.8496  26630.8  162.326
 11.0476  25676.6  159.374
 11.2456  25030.2  158.377
 11.4436  25050.8  157.172
 11.6416  26280  161.349
 11.8396  24061  154.577
 12.0376  24000.3  154.02
 12.2356  23392.3  152.498
 12.4336  23252.8  151.559
 12.6316  23085.1  151.268
 12.8296  23564.8  152.486
 13.0276  23938.3  153.87
 13.2256  24084.1  154.699
 13.4236  24132  154.612
 13.6216  23771.9  153.473
 13.8196  24103.2  154.073
 14.0176  23394.6  152.367
 14.2156  22882.2  149.691
 14.4136  21943.9  147.949
 14.6116  21498.3  145.655
 14.8096  20968.7  143.839
 15.0076  19591.9  142.773
 15.2056  19309.1  137.647
 15.4036  18315.7  134.877
 15.6016  18066.4  133.051
 15.7996  17711.7  132.009
 15.9976  16886.5  131.793
 16.1956  16479.6  128.086
 16.3936  16235.2  126.317
 16.5916  15806.3  125.26
 16.7896  15984.2  126.022
 16.9876  15742.8  126.507
 17.1856  15472.4  123.686
 17.3836  15107.3  122.241
 17.5816  14654.7  120.864
 17.7796  14388.6  119.709
 17.9776  14121.4  119.363
 18.1756  14021.3  117.619
 18.3736  13915.6  117.743
 18.5716  13716.4  116.643
 18.7696  13699.6  116.163
 18.9676  13533.4  115.262
 19.1656  13485.2  115.792
 19.3636  13390.6  115.499
 19.5616  13276.9  115.07
 19.7596  13431.1  115.148
 19.9576  13623.7  116.032
 20.1556  14324.4  119.509
 20.3536  13786.5  116.61
 20.5516  13303.8  115.004
 20.7496  12678.5  112.118
 20.9476  12651.4  111.841
 21.1456  12820.7  112.916
 21.3436  12548.7  111.663
 21.5416  12357.4  110.795
 21.7396  12345  110.601
 21.9376  12427.9  110.738
 22.1356  12389.9  110.837
 22.3336  12543.4  111.658
 22.5316  12221.1  110.315
 22.7296  12277.5  109.937
 22.9276  12293.8  110.686
 23.1256  12460.4  110.917
 23.3236  12364.4  111.028
 23.5216  12432.9  110.985
 23.7196  12145.3  109.851
 23.9176  12186.7  109.589
 24.1156  11946  108.971
 24.3136  11566.3  108.006
 24.5116  11604.4  107.716
 24.7096  11285.5  106.046
 24.9076  11055.6  104.981
 25.1056  10879.2  104.331
 25.3036  10735.6  103.505
 25.5016  10618.4  102.895
 25.6996  10786.1  103.292
 25.8976  10620.7  102.924
 26.0956  10681.8  103.243
 26.2936  10731.6  103.132
 26.4916  10700.5  102.86
 26.6896  10487.3  102.129
 26.8876  10336.4  101.242
 27.0856  10275.9  100.959
 27.2836  10141.2  100.231
 27.4816  9993.66  99.4365
 27.6796  9974.44  99.7084
 27.8776  9853.12  98.954
 28.0756  9892.71  99.4436
 28.2736  9730.52  98.2096
 28.4716  9613.03  97.6617
 28.6696  9637.43  97.6405
 28.8676  9548.73  97.528
 29.0656  9446.4  96.9862
 29.2636  9406.85  96.4937
 29.4616  9337.87  96.4121
 29.6596  9435.34  96.4849
 29.8576  9142.93  95.6489
 30.0556  9284.51  96.2668
 30.2536  9502.65  97.1821
 30.4516  9189.41  95.2192
 30.6496  9187.41  94.9401
 30.8476  9154.1  95.1991
 31.0456  9086.09  94.8035
 31.2436  9019.88  93.7412
 31.4416  9122.41  94.454
 31.6396  9075.2  94.2535
 31.8376  8978.25  93.3037
 32.0356  8791.05  92.8741
 32.2336  8763.46  92.1295
 32.4316  8805.79  92.7578
 32.6296  8746.81  92.2224
 32.8276  8759.47  92.1288
 33.0256  8551.9  91.1119
 33.2236  8667.4  91.8622
 33.4216  8711.01  91.8251
 33.6196  8698.41  92.0499
 33.8176  8709.86  92.2296
 34.0156  8649.33  91.5301
 34.2136  8433.99  90.4238
 34.4116  8419.42  90.4975
 34.6096  8409.18  90.3248
 34.8076  8335.05  90.3197
 35.0056  8357.87  90.142
 35.2036  8423.75  90.7014
 35.4016  8334.92  90.1545
 35.5996  8220.67  89.5608
 35.7976  8162.65  89.5221
 35.9956  8202.7  89.3857
 36.1936  8230.43  89.4108
 36.3916  8091.36  88.825
 36.5896  8118.18  90.3921
 36.7876  8227.96  89.9527
 36.9856  8108.58  89.3277
 37.1836  7934.05  87.478
 37.3816  8069.5  88.5841
 37.5796  7813.2  88.8454
 37.7776  7841.24  87.3983
 37.9756  7761.62  86.8337
 38.1736  7913.07  87.875
 38.3716  7815.61  87.6085
 38.5696  7779.47  87.778
 38.7676  7584.56  86.1841
 38.9656  7762.58  86.8289
 39.1636  7718.04  86.8084
 39.3616  7685.39  86.5943
 39.5596  7610.22  87.005
 39.7576  7627.3  86.485
 39.9556  7811.08  87.1625
 40.1536  7797.37  87.2845
 40.3516  7811.53  87.3824
 40.5496  7840.15  87.5867
 40.7476  7811.79  87.6363
 40.9456  7823.03  87.4531
 41.1436  7827.32  87.2
 41.3416  7744.37  87.0707
 41.5396  7748.45  86.9076
 41.7376  7731.19  87.0694
 41.9356  7629.11  86.3554
 42.1336  7660.46  86.6745
 42.3316  7695.29  87.074
 42.5296  7672.93  86.4654
 42.7276  7720.14  86.9674
 42.9256  7684.06  86.6352
 43.1236  7580.35  86.1582
 43.3216  7583.08  86.0276
 43.5196  7526.54  85.6225
 43.7176  7482.55  85.8057
 43.9156  7502.96  85.8391
 44.1136  7483.09  85.2838
 44.3116  7429.62  84.9929
 44.5096  7315.99  84.641
 44.7076  7482.9  85.5159
 44.9056  7351.54  84.6399
 45.1036  7297.11  83.9581
 45.3016  7190  83.8299
 45.4996  7099.97  83.2435
 45.6976  7140.93  83.6592
 45.8956  7195.99  83.7981
 46.0936  7233.17  83.7766
 46.2916  7244.58  84.0631
 46.4896  7163.02  83.6222
 46.6876  7015.39  83.446
 46.8856  7065.9  83.0296
 47.0836  6969.24  82.6993
 47.2816  6976.26  82.6227
 47.4796  7008.32  82.9111
 47.6776  6890.25  83.1389
 47.8756  6957.29  82.7325
 48.0736  6900.33  82.8365
 48.2716  6716.13  81.5522
 48.4696  6855.03  81.9885
 48.6676  6753.2  81.951
 48.8656  6801.54  81.9792
 49.0636  6889.28  82.4448
 49.2616  6677.22  81.202
 49.4596  6768.34  81.3249
 49.6576  6646.39  80.8183
 49.8556  6717.84  81.2647
 50.0536  6714.42  81.6879
 50.2516  6618.89  81.2035
 50.4496  6659.26  81.0859
 50.6476  6615.57  80.5612
 50.8456  6637.51  80.7776
 51.0436  6416.03  79.8581
 51.2416  6505.98  80.0936
 51.4396  6350.06  79.5144
 51.6376  6401.13  79.6586
 51.8356  6453.33  79.5471
 52.0336  6332.27  79.3641
 52.2316  6312.24  79.5805
 52.4296  6310.98  79.2682
 52.6276  6280.72  79.1996
 52.8256  6358.97  79.2504
 53.0236  6199.95  78.8803
 53.2216  6124.32  78.615
 53.4196  6171.04  78.6534
 53.6176  6169.57  79.1137
 53.8156  6260.75  79.3733
 54.0136  6167.73  78.9567
 54.2116  6139.91  78.4387
 54.4096  6177.76  78.7298
 54.6076  6139.7  78.8364
 54.8056  6016.96  77.837
 55.0036  6090.84  78.5694
 55.2016  6123.96  78.3937
 55.3996  6064.45  78.0557
 55.5976  6051  78.1468
 55.7956  6038.02  77.8844
 55.9936  5993.95  77.7322
 56.1916  6127.89  78.6096
 56.3896  6097.37  78.415
 56.5876  5966.12  78.1022
 56.7856  5934.37  77.3862
 56.9836  5934.99  77.1747
 57.1816  5973.15  77.81
 57.3796  5972.19  77.5968
 57.5776  6145.4  78.6369
 57.7756  5928.43  77.8701
 57.9736  5960.02  77.7519
 58.1716  6032.45  78.4639
 58.3696  5927.3  77.5357
 58.5676  5974.93  77.3336
 58.7656  5973  77.9809
 58.9636  6219.65  79.6111
 59.1616  5928.96  77.8458
 59.3596  6035.68  77.8154
 59.5576  6044.85  77.9311
 59.7556  5901.65  77.416
 59.9536  6258.59  79.6197
 60.1516  6021.52  78.9448
 60.1996  0.0000000E+00  0.0000000E+00