File: docs/examples/opeando_xrd/IS17_D/Data/IS17_D/17_Da_f00114.xye
# /beamlines/bl04/projects/cycle2025-II/20250340211-lsimonelli/DATA/IS17_D/17_Da_f00114.xye : mythproc.py merge -s 0.006 -l 0.5 -f /beamlines/bl04/inhouse/ff/FlatField/ff_20Nov2024rod8mm60s_17keV.raw -b True -c true -o xye /beamlines/bl04/projects/cycle2025-II/20250340211-lsimonelli/DATA/IS17_D/17_Da_00114.dat
# IsMon = [6784765, 6790276, 6788560]  IsPos = [-1.4999, -2.4884, -3.4988]
# Wave = 0.4962  CalPath /beamlines/bl04/projects/cycle2025-II/20250340211-lsimonelli/DATA/Align/Si_Pos1_25keV_f00001.cal
# Date = 2025-09-25_01:20:24 Dt = 4.8000  Bin = 0.0060  <imon> = 6787867 +/- 2303 (Min/Max) 6784765 / 6790276
# icurr 252.5087  mocoIn 1.7219E-05  mocoOut 0.8083  i15 7.10546e+06  imon 6.78787e+06  i7 6.0000  iEMpd_timer 4.8000  iEMpd_1 3.4643E-08  iEMpd_2 7.8805E-08  iEMpd_3 1.6416E-08  iEMpd_4 4.8260E-08  iEMhp_timer 4.8000  iEMhp_1 4.9322E-06  iEMhp_2 -2.4798E-08  iEMhp_3 -2.3766E-08  iEMhp_4 -2.0096E-08
#      9776
 1.7416  70481.8  265.621
 1.9396  47200.2  217.649
 2.1376  34039.9  184.829
 2.3356  30753.7  175.311
 2.5336  28939.1  170.659
 2.7316  27309  165.864
 2.9296  25977.2  161.94
 3.1276  25565.6  160.196
 3.3256  24964.5  157.941
 3.5236  26696.1  163.127
 3.7216  24232.3  156.682
 3.9196  23561.7  153.719
 4.1176  23657.6  153.806
 4.3156  24711.2  157.353
 4.5136  27064.8  163.639
 4.7116  28089.2  167.866
 4.9096  27467  165.425
 5.1076  27206.8  165.233
 5.3056  27597.3  166.133
 5.5036  27347.5  165.262
 5.7016  27593.7  165.983
 5.8996  28256.3  167.17
 6.0976  28923.1  170.595
 6.2956  29598.4  171.883
 6.4936  30337.5  173.195
 6.6916  30751  175.393
 6.8896  31448.6  177.232
 7.0876  32647.4  181.316
 7.2856  32498.7  179.943
 7.4836  33201  181.203
 7.6816  33650.4  182.964
 7.8796  35265.5  187.283
 8.0776  36517.9  191.569
 8.2756  38546.7  195.407
 8.4736  39288.1  197.074
 8.6716  38388.9  195.445
 8.8696  38532.2  196.333
 9.0676  37823  193.872
 9.2656  36681.5  191.623
 9.4636  36430.6  189.333
 9.6616  35515.7  187.733
 9.8596  34025.1  183.202
 10.0576  32112.7  178.642
 10.2556  30997.8  175.961
 10.4536  29596.7  171.544
 10.6516  29247.4  170.719
 10.8496  28301.8  167.351
 11.0476  27544.1  165.118
 11.2456  26839.8  163.523
 11.4436  27132  163.578
 11.6416  28109.8  166.871
 11.8396  25579.8  159.398
 12.0376  25512.7  158.813
 12.2356  24856  157.159
 12.4336  24908.5  156.865
 12.6316  24533.3  155.962
 12.8296  24876.2  156.671
 13.0276  25419.7  158.553
 13.2256  25716.5  159.854
 13.4236  25364.5  158.521
 13.6216  25300.8  158.347
 13.8196  25220.9  157.853
 14.0176  24875.2  157.051
 14.2156  24528  154.986
 14.4136  23157.2  151.987
 14.6116  22801  150.003
 14.8096  22101.3  147.67
 15.0076  21005.8  147.842
 15.2056  20522.8  141.882
 15.4036  19684.3  139.791
 15.6016  19307.5  137.52
 15.7996  18653.1  135.451
 15.9976  18080.8  136.342
 16.1956  17583.9  132.324
 16.3936  17124.3  129.748
 16.5916  16798.8  129.15
 16.7896  16781  129.142
 16.9876  16751.7  130.503
 17.1856  16613.7  128.291
 17.3836  15997.8  125.806
 17.5816  15492.4  124.287
 17.7796  15372.8  123.739
 17.9776  15116.4  123.504
 18.1756  15180.8  122.445
 18.3736  14919.5  121.907
 18.5716  14679.9  120.681
 18.7696  14794.6  120.715
 18.9676  14408.9  118.942
 19.1656  14490.4  119.839
 19.3636  14375.8  119.565
 19.5616  14334.4  119.567
 19.7596  14392.8  119.205
 19.9576  14561.1  119.957
 20.1556  15416.4  123.974
 20.3536  14427.6  119.298
 20.5516  13993.5  117.947
 20.7496  13586  116.151
 20.9476  13517.1  115.608
 21.1456  13677.7  116.625
 21.3436  13281.7  114.879
 21.5416  13279.8  114.864
 21.7396  13161.6  114.2
 21.9376  13164.4  113.981
 22.1356  13160.7  114.084
 22.3336  13037.8  113.836
 22.5316  13123.1  114.3
 22.7296  13074.4  113.437
 22.9276  13007.8  113.836
 23.1256  13172.2  114.018
 23.3236  13053.9  114.097
 23.5216  13039.9  113.685
 23.7196  12924.9  113.123
 23.9176  12751  112.12
 24.1156  12736.9  112.534
 24.3136  12177.3  110.828
 24.5116  12212.5  110.506
 24.7096  11775.5  108.329
 24.9076  11592.2  107.516
 25.1056  11414.3  107.148
 25.3036  11445.7  106.792
 25.5016  11441.2  106.81
 25.6996  11343.2  105.928
 25.8976  11277.1  106.063
 26.0956  11311.8  106.244
 26.2936  11198.1  105.34
 26.4916  11293.2  105.671
 26.6896  10920.6  104.216
 26.8876  10969.2  104.3
 27.0856  10918.3  104.108
 27.2836  10660.2  102.761
 27.4816  10631.5  102.547
 27.6796  10428.1  101.95
 27.8776  10475.2  102.041
 28.0756  10548.4  102.677
 28.2736  10366.7  101.374
 28.4716  10265.1  100.918
 28.6696  10276.8  100.824
 28.8676  9966.84  99.6383
 29.0656  10057.2  100.071
 29.2636  10041.1  99.7831
 29.4616  10013.1  99.8196
 29.6596  9990.3  99.2624
 29.8576  9864.82  99.3352
 30.0556  9811.26  98.9431
 30.2536  9891.59  99.1338
 30.4516  9638.11  97.5282
 30.6496  9860.97  98.3665
 30.8476  9768.47  98.3583
 31.0456  9645.31  97.6977
 31.2436  9630.32  96.8816
 31.4416  9542.19  96.6066
 31.6396  9438.69  96.1285
 31.8376  9400.11  95.4713
 32.0356  9342.79  95.744
 32.2336  9276.77  94.8028
 32.4316  9273.89  95.1886
 32.6296  9260.41  94.9532
 32.8276  9365.13  95.2598
 33.0256  9145.87  94.2209
 33.2236  9093.53  94.1011
 33.4216  9203.67  94.35
 33.6196  9135.57  94.2947
 33.8176  9131.25  94.4378
 34.0156  9043.87  93.6035
 34.2136  9055.24  93.7021
 34.4116  8924.4  93.1704
 34.6096  8878.33  92.8061
 34.8076  8715.03  92.3583
 35.0056  8881.86  92.9285
 35.2036  8848.62  92.9608
 35.4016  8847.92  92.8805
 35.5996  8674.86  92.0083
 35.7976  8568.21  91.7212
 35.9956  8665.04  91.8709
 36.1936  8522.28  90.983
 36.3916  8543.61  91.275
 36.5896  8502.82  92.0384
 36.7876  8386.52  90.8023
 36.9856  8441.31  91.1211
 37.1836  8354.62  89.7494
 37.3816  8418.15  90.4628
 37.5796  8315.77  91.6517
 37.7776  8273.4  89.7916
 37.9756  8286.14  89.7392
 38.1736  8424.82  90.6865
 38.3716  8263.03  90.0921
 38.5696  8162.78  89.9159
 38.7676  7952.06  88.2541
 38.9656  8017.51  88.2512
 39.1636  8030.58  88.5923
 39.3616  8138.59  89.1085
 39.5596  7995.66  89.1729
 39.7576  8041.55  88.799
 39.9556  8118.81  88.866
 40.1536  8264.66  89.8692
 40.3516  8298.89  90.0579
 40.5496  8280.64  90.2274
 40.7476  8288.77  90.2819
 40.9456  8251.03  89.8164
 41.1436  8142.32  88.9474
 41.3416  8182.85  89.5
 41.5396  8101.01  88.8593
 41.7376  8216.69  89.7654
 41.9356  8038.23  88.6405
 42.1336  8115.98  89.2207
 42.3316  8069.26  89.1583
 42.5296  8092.87  88.8016
 42.7276  8000.46  88.5354
 42.9256  7968.25  88.2259
 43.1236  7990.11  88.4562
 43.3216  7974.8  88.1206
 43.5196  7858.87  87.5402
 43.7176  7931.17  88.3408
 43.9156  7883.24  87.975
 44.1136  7789.72  86.9961
 44.3116  7805.75  87.1026
 44.5096  7766.02  87.1815
 44.7076  7691.28  86.7005
 44.9056  7791.01  87.1442
 45.1036  7703.04  86.2692
 45.3016  7585.94  86.1169
 45.4996  7645.43  86.3919
 45.6976  7439.44  85.3909
 45.8956  7559.42  85.8923
 46.0936  7603.98  86.1456
 46.2916  7605.66  86.136
 46.4896  7505.95  85.6045
 46.6876  7400.44  85.7163
 46.8856  7394.65  84.9327
 47.0836  7372.69  85.0586
 47.2816  7221.46  84.0569
 47.4796  7303.14  84.6417
 47.6776  7207.68  85.02
 47.8756  7305.34  84.7729
 48.0736  7278.83  85.0828
 48.2716  7091.46  83.793
 48.4696  7253.47  84.3375
 48.6676  7154.02  84.3491
 48.8656  7195.93  84.3101
 49.0636  7200.8  84.2919
 49.2616  6977.55  83.0116
 49.4596  7071.23  83.1262
 49.6576  7004.94  82.954
 49.8556  7038.18  83.1816
 50.0536  6944.19  83.0735
 50.2516  6996.42  83.5193
 50.4496  6979.74  83.0613
 50.6476  6985.76  82.7863
 50.8456  6894.65  82.3346
 51.0436  6844.19  82.464
 51.2416  6833.47  82.0755
 51.4396  6602.38  81.0472
 51.6376  6769.91  81.9082
 51.8356  6831.16  81.9121
 52.0336  6628.37  81.2032
 52.2316  6560.96  81.1386
 52.4296  6695.81  81.6666
 52.6276  6657.38  81.5398
 52.8256  6623.04  80.877
 53.0236  6562.67  81.1565
 53.2216  6523.64  80.9514
 53.4196  6489.19  80.6607
 53.6176  6475.32  81.0538
 53.8156  6537.34  81.1052
 54.0136  6483.78  80.9508
 54.2116  6434.73  80.3099
 54.4096  6423.26  80.2823
 54.6076  6456.51  80.8451
 54.8056  6418.33  80.3918
 55.0036  6441.49  80.9331
 55.2016  6418.62  80.3327
 55.3996  6337.62  79.7908
 55.5976  6320.34  79.8668
 55.7956  6403.17  80.2051
 55.9936  6411.34  80.3965
 56.1916  6331.49  79.913
 56.3896  6396.62  80.311
 56.5876  6253.34  79.9624
 56.7856  6256.39  79.4574
 56.9836  6251.74  79.2185
 57.1816  6300.73  79.9092
 57.3796  6246.37  79.3506
 57.5776  6247.56  79.2828
 57.7756  6265.78  80.0532
 57.9736  6165.57  79.084
 58.1716  6294.16  80.1493
 58.3696  6380.74  80.4351
 58.5676  6244.03  79.0355
 58.7656  6292.36  80.0277
 58.9636  6283.31  80.0039
 59.1616  6223.34  79.7491
 59.3596  6415.61  80.2188
 59.5576  6358.13  79.9168
 59.7556  6459.77  80.9856
 59.9536  6415.27  80.6019
 60.1516  6399.99  81.3797
 60.1996  0.0000000E+00  0.0000000E+00