File: docs/examples/opeando_xrd/IS17_D/Data/IS17_D/17_Da_f00027.xye
# /beamlines/bl04/projects/cycle2025-II/20250340211-lsimonelli/DATA/IS17_D/17_Da_f00027.xye : mythproc.py merge -s 0.006 -l 0.5 -f /beamlines/bl04/inhouse/ff/FlatField/ff_20Nov2024rod8mm60s_17keV.raw -b True -c true -o xye /beamlines/bl04/projects/cycle2025-II/20250340211-lsimonelli/DATA/IS17_D/17_Da_00027.dat
# IsMon = [6765212, 6770900, 6768962]  IsPos = [-1.4999, -2.4884, -3.4988]
# Wave = 0.4962  CalPath /beamlines/bl04/projects/cycle2025-II/20250340211-lsimonelli/DATA/Align/Si_Pos1_25keV_f00001.cal
# Date = 2025-09-24_01:04:26 Dt = 4.8000  Bin = 0.0060  <imon> = 6768358 +/- 2361 (Min/Max) 6765212 / 6770900
# icurr 251.5839  mocoIn 1.7166E-05  mocoOut 0.8050  i15 7.08591e+06  imon 6.76836e+06  i7 10.0000  iEMpd_timer 4.8000  iEMpd_1 3.5708E-08  iEMpd_2 7.7504E-08  iEMpd_3 1.7361E-08  iEMpd_4 4.9604E-08  iEMhp_timer 4.8000  iEMhp_1 4.9158E-06  iEMhp_2 -2.4961E-08  iEMhp_3 -2.4360E-08  iEMhp_4 -2.1096E-08
#      9776
 1.7416  69892.4  264.509
 1.9396  45075.7  212.696
 2.1376  31738.5  178.471
 2.3356  28054.7  167.443
 2.5336  26437.1  163.116
 2.7316  24812  158.097
 2.9296  23740.6  154.811
 3.1276  23292.7  152.904
 3.3256  22887.6  151.229
 3.5236  24833.3  157.328
 3.7216  22721.5  151.722
 3.9196  22166  149.094
 4.1176  22187.1  148.95
 4.3156  23539.8  153.579
 4.5136  25872.5  159.993
 4.7116  27057.7  164.756
 4.9096  26380.8  162.123
 5.1076  26234.5  162.254
 5.3056  26720.4  163.468
 5.5036  26303.6  162.081
 5.7016  26624.4  163.041
 5.8996  27020.6  163.466
 6.0976  27834.8  167.353
 6.2956  28539.9  168.781
 6.4936  29149.5  169.774
 6.6916  29249.7  171.059
 6.8896  30104.6  173.395
 7.0876  30953  176.548
 7.2856  30898.6  175.46
 7.4836  31029.3  175.174
 7.6816  31865  178.047
 7.8796  33206.1  181.729
 8.0776  34887.4  187.241
 8.2756  36424.7  189.95
 8.4736  36948.9  191.115
 8.6716  36183  189.744
 8.8696  35865.2  189.427
 9.0676  35054.1  186.641
 9.2656  34242.5  185.141
 9.4636  33732.5  182.182
 9.6616  32872.9  180.613
 9.8596  31859.9  177.276
 10.0576  29921.3  172.435
 10.2556  29137  170.602
 10.4536  28556  168.5
 10.6516  27856.4  166.615
 10.8496  27084.2  163.709
 11.0476  26117.6  160.781
 11.2456  25472.8  159.3
 11.4436  25748.8  159.353
 11.6416  25317.7  158.367
 11.8396  24071.5  154.627
 12.0376  23797.7  153.382
 12.2356  23344.6  152.307
 12.4336  23312.8  151.761
 12.6316  22981.5  150.947
 12.8296  23387.8  151.913
 13.0276  23838.6  153.544
 13.2256  23873.8  154.02
 13.4236  23699.2  153.224
 13.6216  23601.5  152.938
 13.8196  23743  153.156
 14.0176  23272.3  151.91
 14.2156  22756.3  149.279
 14.4136  21874.8  147.716
 14.6116  21287.8  144.943
 14.8096  20890.1  143.568
 15.0076  19606.9  142.833
 15.2056  19265.5  137.464
 15.4036  18526.4  135.625
 15.6016  18147  133.318
 15.7996  17620.5  131.651
 15.9976  16856.6  131.66
 16.1956  16301.9  127.41
 16.3936  16073.2  125.704
 16.5916  15889.4  125.607
 16.7896  15780.9  125.235
 16.9876  15805.8  126.77
 17.1856  15340.9  123.28
 17.3836  15047.2  122.008
 17.5816  14553.9  120.468
 17.7796  14569.3  120.462
 17.9776  14442.5  120.719
 18.1756  14807.7  120.926
 18.3736  14675.9  120.909
 18.5716  14131.6  118.401
 18.7696  14187.8  118.211
 18.9676  13855  116.632
 19.1656  13705.4  116.542
 19.3636  13628.7  116.413
 19.5616  13415.5  115.668
 19.7596  13678.6  116.216
 19.9576  13927.5  117.317
 20.1556  13770.3  117.168
 20.3536  13296.2  114.525
 20.5516  13014.9  113.745
 20.7496  12829.6  112.871
 20.9476  12702.5  112.071
 21.1456  12950.7  113.482
 21.3436  12671.9  112.21
 21.5416  12564.3  111.733
 21.7396  12431.9  110.989
 21.9376  12442.4  110.806
 22.1356  12471.6  111.051
 22.3336  12283.9  110.496
 22.5316  12363.5  110.944
 22.7296  12412.3  110.531
 22.9276  12147  110.004
 23.1256  12556.4  111.327
 23.3236  12305  110.782
 23.5216  12331.1  110.552
 23.7196  12153.5  109.7
 23.9176  12097.8  109.208
 24.1156  11948.4  108.996
 24.3136  11622.7  108.273
 24.5116  11519.8  107.326
 24.7096  11280.4  106.027
 24.9076  11022  104.838
 25.1056  10947.3  104.933
 25.3036  10804.2  103.757
 25.5016  10766.4  103.606
 25.6996  10802.4  103.366
 25.8976  10601.4  102.838
 26.0956  10762.2  103.63
 26.2936  10676.2  102.86
 26.4916  10728.4  103.001
 26.6896  10293  101.173
 26.8876  10286.7  101.001
 27.0856  10350.7  101.359
 27.2836  10249.5  100.761
 27.4816  10017.3  99.5463
 27.6796  9945.66  99.564
 27.8776  9986.7  99.6323
 28.0756  10002.5  99.9866
 28.2736  9812.05  98.625
 28.4716  9745.82  98.336
 28.6696  9822.3  98.5685
 28.8676  9561.14  97.592
 29.0656  9526.79  97.3977
 29.2636  9579.38  97.4616
 29.4616  9309.87  96.2498
 29.6596  9541.81  97.0081
 29.8576  9293.64  96.4166
 30.0556  9301.63  96.3377
 30.2536  9383.34  96.5547
 30.4516  9260.4  95.5966
 30.6496  9228.32  95.1626
 30.8476  9056.14  94.7047
 31.0456  9092.37  94.8567
 31.2436  9116.8  94.2601
 31.4416  8990.38  93.7725
 31.6396  8964.15  93.6807
 31.8376  8997.56  93.4062
 32.0356  8910.63  93.5118
 32.2336  8773.91  92.1945
 32.4316  8732.25  92.3635
 32.6296  8704.31  92.0573
 32.8276  8685.34  91.7441
 33.0256  8609.42  91.4163
 33.2236  8559.62  91.2904
 33.4216  8700.49  91.7383
 33.6196  8645.63  91.7307
 33.8176  8639.88  91.8615
 34.0156  8522.32  90.8623
 34.2136  8508.66  90.8307
 34.4116  8395.91  90.3668
 34.6096  8460.62  90.5982
 34.8076  8260.95  89.9245
 35.0056  8424.01  90.4991
 35.2036  8277.42  89.9096
 35.4016  8221.7  89.532
 35.5996  8195.74  89.425
 35.7976  8216.79  89.8189
 35.9956  8192.14  89.3339
 36.1936  8143.34  88.935
 36.3916  8097.11  88.8554
 36.5896  8088.1  89.764
 36.7876  7964.63  88.4887
 36.9856  8036.11  88.9042
 37.1836  8008.98  87.8743
 37.3816  7969.01  88.0145
 37.5796  7968.06  89.718
 37.7776  7888.16  87.6701
 37.9756  7943.29  87.8615
 38.1736  7985.86  88.2935
 38.3716  7801.01  87.5379
 38.5696  7713.04  87.4002
 38.7676  7644.79  86.5313
 38.9656  7691.64  86.4388
 39.1636  7615.01  86.2761
 39.3616  7643.81  86.3559
 39.5596  7640.45  87.1739
 39.7576  7657.46  86.6563
 39.9556  7646.52  86.2431
 40.1536  7670.51  86.5801
 40.3516  7838.51  87.5226
 40.5496  7769.83  87.3947
 40.7476  7822.54  87.689
 40.9456  7710.17  86.812
 41.1436  7834.25  87.241
 41.3416  7691.89  86.7724
 41.5396  7807.63  87.2391
 41.7376  7710.6  86.9557
 41.9356  7693.52  86.7185
 42.1336  7653.83  86.6444
 42.3316  7626.2  86.6766
 42.5296  7542.37  85.7247
 42.7276  7637.8  86.5055
 42.9256  7658.32  86.4883
 43.1236  7604.07  86.2928
 43.3216  7592.38  85.9832
 43.5196  7495.35  85.4908
 43.7176  7429.54  85.5012
 43.9156  7468.58  85.6289
 44.1136  7319.19  84.3291
 44.3116  7463.96  85.1774
 44.5096  7367.43  84.922
 44.7076  7340.07  84.6984
 44.9056  7220.85  83.895
 45.1036  7167.55  83.2202
 45.3016  7233.78  84.096
 45.4996  7149.05  83.5396
 45.6976  7102.25  83.4376
 45.8956  7138.23  83.4647
 46.0936  7221.33  83.9601
 46.2916  7096.27  83.2032
 46.4896  7182.19  83.7262
 46.6876  7078.66  83.8231
 46.8856  6915.92  82.1237
 47.0836  7045.39  83.1534
 47.2816  6913.53  82.2425
 47.4796  7021.31  82.989
 47.6776  6711.39  82.0493
 47.8756  6814.49  81.8694
 48.0736  6874.32  82.6884
 48.2716  6714.73  81.5346
 48.4696  6773.86  81.5021
 48.6676  6837.06  82.4595
 48.8656  6755.14  81.6908
 49.0636  6893.23  82.4675
 49.2616  6657.87  81.0856
 49.4596  6679.46  80.7929
 49.6576  6625.41  80.6871
 49.8556  6685.54  81.0705
 50.0536  6675.07  81.4398
 50.2516  6603.86  81.1411
 50.4496  6603.26  80.7955
 50.6476  6576.17  80.3225
 50.8456  6566.19  80.3401
 51.0436  6492.48  80.3181
 51.2416  6456.6  79.7806
 51.4396  6206.15  78.5945
 51.6376  6304.19  79.0355
 51.8356  6340.05  78.906
 52.0336  6196.8  78.5192
 52.2316  6211.9  78.954
 52.4296  6276.85  79.0652
 52.6276  6231.63  78.8895
 52.8256  6338.54  79.1216
 53.0236  6174.46  78.7219
 53.2216  6133.2  78.4895
 53.4196  6104.27  78.2307
 53.6176  6067.94  78.463
 53.8156  6036.3  77.9393
 54.0136  6067.38  78.3091
 54.2116  6076.6  78.0422
 54.4096  6113  78.3195
 54.6076  6077.69  78.4327
 54.8056  6049.46  78.0459
 55.0036  5971.25  77.9203
 55.2016  6041.65  77.939
 55.3996  6038.01  77.8793
 55.5976  5998.96  77.8093
 55.7956  5961.45  77.3859
 55.9936  5985.56  77.6836
 56.1916  5953.29  77.4826
 56.3896  5992.15  77.7272
 56.5876  5917.62  77.7856
 56.7856  5952.97  77.5088
 56.9836  5925.75  77.1159
 57.1816  5863.11  77.0846
 57.3796  5950.13  77.4519
 57.5776  5964.47  77.4776
 57.7756  5916.71  77.782
 57.9736  5861.67  77.1117
 58.1716  5947.14  77.9035
 58.3696  5910.28  77.4121
 58.5676  5949.52  77.1528
 58.7656  5933.01  77.7085
 58.9636  6081.95  78.71
 59.1616  5879.27  77.5104
 59.3596  6145.94  78.513
 59.5576  5975.01  77.4721
 59.7556  5985.21  77.9546
 59.9536  6077.7  78.4532
 60.1516  6005.87  78.8346
 60.1996  0.0000000E+00  0.0000000E+00