File: docs/examples/opeando_xrd/IS17_D/Data/IS17_D/17_Da_f00101.xye
# /beamlines/bl04/projects/cycle2025-II/20250340211-lsimonelli/DATA/IS17_D/17_Da_f00101.xye : mythproc.py merge -s 0.006 -l 0.5 -f /beamlines/bl04/inhouse/ff/FlatField/ff_20Nov2024rod8mm60s_17keV.raw -b True -c true -o xye /beamlines/bl04/projects/cycle2025-II/20250340211-lsimonelli/DATA/IS17_D/17_Da_00101.dat
# IsMon = [6781439, 6781588, 6781818]  IsPos = [-1.4999, -2.4883, -3.4988]
# Wave = 0.4962  CalPath /beamlines/bl04/projects/cycle2025-II/20250340211-lsimonelli/DATA/Align/Si_Pos1_25keV_f00001.cal
# Date = 2025-09-24_21:42:14 Dt = 4.8000  Bin = 0.0060  <imon> = 6781615 +/- 156 (Min/Max) 6781439 / 6781818
# icurr 251.9868  mocoIn 1.7198E-05  mocoOut 0.8073  i15 7.10116e+06  imon 6.78162e+06  i7 6.6667  iEMpd_timer 4.8000  iEMpd_1 3.4630E-08  iEMpd_2 7.8094E-08  iEMpd_3 1.7526E-08  iEMpd_4 4.9013E-08  iEMhp_timer 4.8000  iEMhp_1 4.9240E-06  iEMhp_2 -2.4218E-08  iEMhp_3 -2.3320E-08  iEMhp_4 -2.1541E-08
#      9776
 1.7416  70970.1  266.482
 1.9396  46561.9  216.125
 2.1376  33434.5  183.138
 2.3356  29788.4  172.501
 2.5336  27862  167.417
 2.7316  26237.9  162.573
 2.9296  25217.4  159.552
 3.1276  24623.5  157.202
 3.3256  24246  155.676
 3.5236  25995.3  160.98
 3.7216  23726.2  155.041
 3.9196  23112.5  152.25
 4.1176  22977.6  151.567
 4.3156  24214.5  155.763
 4.5136  26679.1  162.476
 4.7116  27683.5  166.65
 4.9096  27175.8  164.544
 5.1076  26778.4  163.916
 5.3056  27122.2  164.697
 5.5036  26825  163.686
 5.7016  27269.4  165.004
 5.8996  27798.5  165.808
 6.0976  28497.3  169.324
 6.2956  29082.6  170.385
 6.4936  29632.8  171.179
 6.6916  30080.5  173.472
 6.8896  31005.6  175.978
 7.0876  31846.8  179.079
 7.2856  31823.4  178.063
 7.4836  32195.1  178.52
 7.6816  32644.3  180.208
 7.8796  34385.3  184.944
 8.0776  35506.3  188.919
 8.2756  37448.2  192.613
 8.4736  38086.3  194.059
 8.6716  37480.4  193.143
 8.8696  37009.1  192.393
 9.0676  36423.5  190.235
 9.2656  35032.1  187.25
 9.4636  34773.4  184.974
 9.6616  34203.8  184.222
 9.8596  32674.5  179.526
 10.0576  31083.5  175.761
 10.2556  29808.4  172.544
 10.4536  28853.2  169.371
 10.6516  28011.5  167.062
 10.8496  27384.9  164.613
 11.0476  26732.5  162.67
 11.2456  26052.2  161.114
 11.4436  26091.7  160.405
 11.6416  26951.9  163.401
 11.8396  24759.2  156.81
 12.0376  24486.2  155.586
 12.2356  24108.8  154.785
 12.4336  24080.8  154.239
 12.6316  23621.8  153.025
 12.8296  23976.1  153.812
 13.0276  24512.2  155.7
 13.2256  24799.9  156.981
 13.4236  24605.1  156.132
 13.6216  24481.5  155.755
 13.8196  24529.6  155.673
 14.0176  23994.6  154.249
 14.2156  23601.4  152.027
 14.4136  22374  149.387
 14.6116  22207.9  148.043
 14.8096  21573.8  145.898
 15.0076  20180  144.913
 15.2056  20079.5  140.354
 15.4036  19059.9  137.58
 15.6016  18757  135.561
 15.7996  18116.9  133.503
 15.9976  17433.1  133.894
 16.1956  17011  130.14
 16.3936  16450.7  127.16
 16.5916  16281.4  127.134
 16.7896  16306.3  127.291
 16.9876  16293.9  128.703
 17.1856  16212.5  126.739
 17.3836  15464.1  123.665
 17.5816  15269.8  123.388
 17.7796  14824.2  121.508
 17.9776  14527.2  121.067
 18.1756  14657.1  120.325
 18.3736  14505.4  120.212
 18.5716  14281  119.027
 18.7696  14334.3  118.822
 18.9676  14058.5  117.48
 19.1656  13849.7  117.158
 19.3636  13959.6  117.827
 19.5616  13856.9  117.547
 19.7596  13899.2  117.135
 19.9576  14130.5  118.168
 20.1556  14884.5  121.822
 20.3536  13945.7  117.289
 20.5516  13546.3  116.05
 20.7496  13067.6  113.915
 20.9476  12931.5  113.072
 21.1456  13105.4  114.159
 21.3436  12921.8  113.311
 21.5416  12983.5  113.572
 21.7396  12695.2  112.157
 21.9376  12805.9  112.416
 22.1356  12794.4  112.486
 22.3336  12622.3  112.024
 22.5316  12789.8  112.856
 22.7296  12700.2  111.815
 22.9276  12521.9  111.702
 23.1256  12804.5  112.427
 23.3236  12868.2  113.26
 23.5216  12496.6  111.28
 23.7196  12373.6  110.68
 23.9176  12459.4  110.813
 24.1156  12179.6  110.032
 24.3136  11793.7  109.067
 24.5116  11826.7  108.747
 24.7096  11594  107.488
 24.9076  11352.9  106.389
 25.1056  11033.5  105.344
 25.3036  11124.3  105.287
 25.5016  11155.2  105.466
 25.6996  11086.8  104.727
 25.8976  10965.4  104.582
 26.0956  11065.8  105.082
 26.2936  10966.2  104.247
 26.4916  11063.2  104.598
 26.6896  10658.9  102.955
 26.8876  10641.6  102.729
 27.0856  10524.4  102.219
 27.2836  10438.4  101.751
 27.4816  10264.9  100.767
 27.6796  10162.3  100.641
 27.8776  10152.3  100.448
 28.0756  10125.8  100.602
 28.2736  10032.8  99.7274
 28.4716  9855.61  98.8842
 28.6696  9885.35  98.8897
 28.8676  9768.36  98.6424
 29.0656  9674.93  98.161
 29.2636  9654.36  97.8388
 29.4616  9672.53  98.1158
 29.6596  9594.57  97.2866
 29.8576  9569.4  97.8473
 30.0556  9596.07  97.8499
 30.2536  9559.08  97.4654
 30.4516  9512.41  96.8811
 30.6496  9430.46  96.1904
 30.8476  9487.52  96.9249
 31.0456  9275.71  95.793
 31.2436  9260.9  94.9928
 31.4416  9094.26  94.3047
 31.6396  9144.18  94.6164
 31.8376  9182.25  94.351
 32.0356  9075.23  94.3722
 32.2336  9071.57  93.7417
 32.4316  9075.51  94.1261
 32.6296  9058.55  93.9188
 32.8276  8961.29  93.1811
 33.0256  8910.88  92.9976
 33.2236  8882.75  92.9976
 33.4216  8946.78  93.0199
 33.6196  8840.98  92.766
 33.8176  8784.46  92.6277
 34.0156  8712.84  91.8747
 34.2136  8668.18  91.6724
 34.4116  8599.61  91.5749
 34.6096  8629.49  91.501
 34.8076  8546.62  91.4675
 35.0056  8650.96  91.7125
 35.2036  8548.42  91.3742
 35.4016  8608.39  91.6194
 35.5996  8483.84  90.9872
 35.7976  8375.25  90.6839
 35.9956  8404.77  90.487
 36.1936  8431.88  90.4961
 36.3916  8193.65  89.3431
 36.5896  8312.41  90.9952
 36.7876  8352.12  90.6238
 36.9856  8068.62  89.0999
 37.1836  8342.29  89.6944
 37.3816  8217.59  89.3873
 37.5796  8045.42  90.1598
 37.7776  8056.2  88.5936
 37.9756  7952.91  87.904
 38.1736  8192.39  89.4207
 38.3716  8037.08  88.8439
 38.5696  7887.45  88.3868
 38.7676  7802.26  87.413
 38.9656  7911.23  87.6625
 39.1636  7867.03  87.6681
 39.3616  7956.85  88.1126
 39.5596  7837.82  88.2901
 39.7576  7807.52  87.4895
 39.9556  7935.76  87.8582
 40.1536  7963.32  88.2095
 40.3516  8016.83  88.5174
 40.5496  7981.59  88.5847
 40.7476  7981.25  88.5827
 40.9456  8092.61  88.9479
 41.1436  7929.75  87.7739
 41.3416  7845.82  87.6093
 41.5396  7870.85  87.5221
 41.7376  7931.8  88.1925
 41.9356  7751.71  87.0437
 42.1336  7860.2  87.8
 42.3316  7819.75  87.7726
 42.5296  7880.62  87.6274
 42.7276  7904.81  88.001
 42.9256  7812.87  87.3601
 43.1236  7742.06  87.0718
 43.3216  7771.18  86.9863
 43.5196  7684.93  86.5653
 43.7176  7647  86.7434
 43.9156  7628.74  86.5523
 44.1136  7484.19  85.2798
 44.3116  7532.43  85.5713
 44.5096  7624.52  86.4044
 44.7076  7565.37  85.9976
 44.9056  7563.14  85.8511
 45.1036  7362.16  84.3348
 45.3016  7371.59  84.8854
 45.4996  7329.4  84.5785
 45.6976  7195.12  83.9748
 45.8956  7379.06  84.8606
 46.0936  7351.02  84.6489
 46.2916  7437.15  85.1735
 46.4896  7295.52  84.3815
 46.6876  7200.24  84.5353
 46.8856  7287.32  84.3159
 47.0836  7145.69  83.7384
 47.2816  7132.3  83.5394
 47.4796  7143.16  83.7019
 47.6776  6984.43  83.7009
 47.8756  7017.48  83.0925
 48.0736  7047.36  83.7102
 48.2716  6914.73  82.777
 48.4696  7002.02  82.887
 48.6676  7043.23  83.6782
 48.8656  6893.64  82.5225
 49.0636  7018.39  83.1968
 49.2616  6797.32  81.8306
 49.4596  6811.12  81.7336
 49.6576  6767.34  81.5338
 49.8556  6755.41  81.4917
 50.0536  6801.31  82.2074
 50.2516  6768.36  82.1412
 50.4496  6721.21  81.5175
 50.6476  6774.43  81.5259
 50.8456  6647.98  80.8421
 51.0436  6591.94  80.9402
 51.2416  6601.12  80.6747
 51.4396  6480.44  80.3194
 51.6376  6573.89  80.7183
 51.8356  6596.8  80.4939
 52.0336  6463.42  80.184
 52.2316  6395.7  80.105
 52.4296  6481.28  80.3356
 52.6276  6404.98  79.9769
 52.8256  6450.49  79.8218
 53.0236  6346.85  79.8117
 53.2216  6331.82  79.751
 53.4196  6160.97  78.5941
 53.6176  6251.45  79.6341
 53.8156  6139.23  78.5982
 54.0136  6310.72  79.8662
 54.2116  6236.62  79.0604
 54.4096  6270.94  79.3299
 54.6076  6253.2  79.5631
 54.8056  6097.58  78.3555
 55.0036  6230.26  79.5967
 55.2016  6115.27  78.4061
 55.3996  6177.68  78.7788
 55.5976  6118.51  78.5862
 55.7956  6193.72  78.8833
 55.9936  6079.39  78.2871
 56.1916  6096.93  78.4082
 56.3896  6181.79  78.9532
 56.5876  6050.69  78.6543
 56.7856  6122.46  78.6056
 56.9836  6041.17  77.8711
 57.1816  6162.41  79.0231
 57.3796  6077.94  78.2811
 57.5776  6085.21  78.255
 57.7756  6074.63  78.8137
 57.9736  6132.71  78.8744
 58.1716  6074.09  78.7361
 58.3696  5967.16  77.7874
 58.5676  6159.73  78.5062
 58.7656  6109.32  78.8626
 58.9636  6265.51  79.8989
 59.1616  6036.45  78.5538
 59.3596  6161.8  78.6176
 59.5576  6143.59  78.5597
 59.7556  6122.45  78.8456
 59.9536  6116.57  78.706
 60.1516  6080.63  79.3261
 60.1996  0.0000000E+00  0.0000000E+00