File: docs/examples/opeando_xrd/IS17_D/Data/IS17_D/17_Db_f00084.xye
# /beamlines/bl04/projects/cycle2025-II/20250340211-lsimonelli/DATA/IS17_D/17_Db_f00084.xye : mythproc.py merge -s 0.006 -l 0.5 -f /beamlines/bl04/inhouse/ff/FlatField/ff_20Nov2024rod8mm60s_17keV.raw -b True -c true -o xye /beamlines/bl04/projects/cycle2025-II/20250340211-lsimonelli/DATA/IS17_D/17_Db_00084.dat
# IsMon = [6769236, 6766163, 6769146]  IsPos = [-1.4999, -2.4884, -3.4989]
# Wave = 0.4962  CalPath /beamlines/bl04/projects/cycle2025-II/20250340211-lsimonelli/DATA/Align/Si_Pos1_25keV_f00001.cal
# Date = 2025-09-24_17:05:50 Dt = 4.8000  Bin = 0.0060  <imon> = 6768182 +/- 1428 (Min/Max) 6766163 / 6769236
# icurr 251.1322  mocoIn 1.7119E-05  mocoOut 0.8031  i15 7.08849e+06  imon 6.76818e+06  i7 5.0000  iEMpd_timer 4.8000  iEMpd_1 3.3472E-08  iEMpd_2 7.7642E-08  iEMpd_3 1.6286E-08  iEMpd_4 4.6730E-08  iEMhp_timer 4.8000  iEMhp_1 4.9044E-06  iEMhp_2 -2.5794E-08  iEMhp_3 -2.4142E-08  iEMhp_4 -2.0985E-08
#      9776
 1.7416  70031.9  264.691
 1.9396  48248.8  219.985
 2.1376  35281.9  188.113
 2.3356  31496.6  177.362
 2.5336  29712.6  172.872
 2.7316  27015.6  164.977
 2.9296  25578.7  160.68
 3.1276  25375.4  159.582
 3.3256  24467.6  156.373
 3.5236  26190.5  161.588
 3.7216  23881.5  155.54
 3.9196  23454.5  153.342
 4.1176  23507.1  153.291
 4.3156  24317.8  156.094
 4.5136  26840.7  162.968
 4.7116  27918.3  167.34
 4.9096  27238  164.725
 5.1076  27035  164.692
 5.3056  27246.3  165.059
 5.5036  26940.6  164.046
 5.7016  27187  164.75
 5.8996  27900.5  166.123
 6.0976  28704.9  169.91
 6.2956  28879.4  169.788
 6.4936  29403.9  170.506
 6.6916  29757.8  172.523
 6.8896  30388.4  174.192
 7.0876  31323.2  177.595
 7.2856  31371.5  176.785
 7.4836  31924.1  177.669
 7.6816  32408  179.537
 7.8796  33292.3  181.984
 8.0776  35075.4  187.777
 8.2756  36576.6  190.366
 8.4736  36719.4  190.552
 8.6716  36438.1  190.452
 8.8696  37217.7  192.951
 9.0676  36429.2  190.223
 9.2656  35306.8  187.965
 9.4636  34382.6  183.951
 9.6616  33657.3  182.726
 9.8596  33031.1  180.489
 10.0576  31001.2  175.528
 10.2556  30407.5  174.284
 10.4536  30146.9  173.117
 10.6516  29736.7  172.159
 10.8496  27731.4  165.654
 11.0476  26867.5  163.073
 11.2456  26506.3  162.519
 11.4436  26369.8  161.261
 11.6416  25789.1  159.817
 11.8396  24700.6  156.601
 12.0376  24155.4  154.517
 12.2356  23917.6  154.174
 12.4336  23936  153.777
 12.6316  23716  153.325
 12.8296  23759.2  153.081
 13.0276  24021.7  154.141
 13.2256  24307.3  155.412
 13.4236  24071.4  154.43
 13.6216  24494.1  155.768
 13.8196  26806  162.416
 14.0176  23448.6  152.399
 14.2156  23223.3  150.79
 14.4136  22176.8  148.732
 14.6116  21797.1  146.66
 14.8096  21043.3  144.069
 15.0076  20148.9  144.85
 15.2056  19142.9  137.045
 15.4036  18321.3  134.897
 15.6016  18055.9  133.009
 15.7996  17518.9  131.282
 15.9976  17358.8  134.145
 16.1956  16910.4  129.709
 16.3936  16533.1  127.453
 16.5916  16264.7  127.056
 16.7896  16346.4  127.426
 16.9876  16281.6  128.636
 17.1856  15900.5  125.523
 17.3836  15287  122.984
 17.5816  15188.7  123.068
 17.7796  15074.2  122.528
 17.9776  14934.5  122.73
 18.1756  15061.5  121.996
 18.3736  14896.9  121.822
 18.5716  14579  120.254
 18.7696  14340.3  118.834
 18.9676  14241.6  118.215
 19.1656  13771.5  116.84
 19.3636  13832.3  117.296
 19.5616  13743.4  117.078
 19.7596  14036.5  117.714
 19.9576  14460.5  119.533
 20.1556  13844.7  117.48
 20.3536  13551.9  115.625
 20.5516  13185.3  114.478
 20.7496  13082.5  113.964
 20.9476  13050.1  113.586
 21.1456  12921.5  113.36
 21.3436  12857.5  113.029
 21.5416  12697.8  112.333
 21.7396  12616.4  111.816
 21.9376  12576  111.41
 22.1356  12617.8  111.717
 22.3336  12367.2  110.895
 22.5316  12440.1  111.305
 22.7296  12303.8  110.069
 22.9276  12134.2  109.967
 23.1256  12417.9  110.72
 23.3236  12657.8  112.349
 23.5216  12489.9  111.236
 23.7196  12323.6  110.448
 23.9176  12546.9  111.194
 24.1156  12281.5  110.458
 24.3136  11931.1  109.698
 24.5116  11929.7  109.208
 24.7096  11693.2  107.933
 24.9076  11445.7  106.816
 25.1056  11169  105.98
 25.3036  11012.8  104.758
 25.5016  10936.3  104.423
 25.6996  10979.6  104.216
 25.8976  11068.4  105.063
 26.0956  10791.4  103.751
 26.2936  10823.9  103.578
 26.4916  10832.3  103.471
 26.6896  10724.4  103.267
 26.8876  10626.7  102.644
 27.0856  10350.3  101.364
 27.2836  10335  101.183
 27.4816  10343.4  101.16
 27.6796  10108.5  100.365
 27.8776  10437.5  101.834
 28.0756  10109.2  100.519
 28.2736  10165.3  100.373
 28.4716  9951.61  99.367
 28.6696  9831.73  98.6138
 28.8676  9771  98.6617
 29.0656  9518.39  97.3533
 29.2636  9796.78  98.5553
 29.4616  9229.9  95.8506
 29.6596  9336.74  95.9728
 29.8576  9210.4  95.9986
 30.0556  9324.21  96.4636
 30.2536  9376.88  96.5356
 30.4516  9483.44  96.708
 30.6496  9515.27  96.6115
 30.8476  9377.86  96.3429
 31.0456  9413.72  96.486
 31.2436  9404.41  95.7046
 31.4416  9395.6  95.8583
 31.6396  9261.55  95.2157
 31.8376  9285.61  94.8518
 32.0356  9148  94.7282
 32.2336  9269.64  94.7556
 32.4316  8877.24  93.1253
 32.6296  8840.82  92.7763
 32.8276  8945.41  93.1134
 33.0256  8728.43  92.0339
 33.2236  8918.55  93.1835
 33.4216  8752.58  91.9977
 33.6196  8762.23  92.3318
 33.8176  8729.62  92.3369
 34.0156  8678.4  91.6935
 34.2136  8759.32  92.1395
 34.4116  8423.03  90.5248
 34.6096  8578.26  91.2291
 34.8076  8425.85  90.83
 35.0056  8429.16  90.5197
 35.2036  8749.68  92.4423
 35.4016  8300.44  89.9605
 35.5996  8400.43  90.534
 35.7976  8319.29  90.3623
 35.9956  8471.25  90.8421
 36.1936  8354.75  90.0638
 36.3916  8266.53  89.7813
 36.5896  8207.62  90.4435
 36.7876  7916.64  88.2353
 36.9856  7945.49  88.4207
 37.1836  8036.8  88.0392
 37.3816  7961.89  87.9856
 37.5796  8071.25  90.304
 37.7776  8027.56  88.4294
 37.9756  8059.85  88.4936
 38.1736  8066.55  88.7206
 38.3716  8000.06  88.6141
 38.5696  7882.56  88.3464
 38.7676  7762.38  87.1955
 38.9656  8013.19  88.2253
 39.1636  7982.98  88.3224
 39.3616  7818.45  87.3481
 39.5596  7749.42  87.7934
 39.7576  7823.41  87.5951
 39.9556  7980.07  88.1054
 40.1536  8010.93  88.4639
 40.3516  7838.2  87.5196
 40.5496  7880.22  88.019
 40.7476  7882.82  88.0296
 40.9456  7986.47  88.3589
 41.1436  8058.09  88.4776
 41.3416  7755.16  87.134
 41.5396  7786.24  87.1109
 41.7376  7814.17  87.5301
 41.9356  7839.88  87.5352
 42.1336  7931.36  88.174
 42.3316  7696.2  87.0703
 42.5296  7885.69  87.6506
 42.7276  7787  87.341
 42.9256  7714.98  86.8084
 43.1236  7840.19  87.6109
 43.3216  7802  87.149
 43.5196  7688.71  86.5733
 43.7176  7700.26  87.04
 43.9156  7577.94  86.2601
 44.1136  7348.87  84.5137
 44.3116  7459.56  85.159
 44.5096  7489.36  85.6386
 44.7076  7330.76  84.6559
 44.9056  7661.17  86.4008
 45.1036  7540.24  85.335
 45.3016  7619.92  86.2864
 45.4996  7369.46  84.7994
 45.6976  7386.29  85.0791
 45.8956  7572.07  85.9562
 46.0936  7653.15  86.4239
 46.2916  7445.31  85.2108
 46.4896  7494.61  85.5331
 46.6876  7377.84  85.5864
 46.8856  7396.29  84.9383
 47.0836  7414.89  85.2981
 47.2816  7342.83  84.7688
 47.4796  7341.42  84.863
 47.6776  7239.14  85.2148
 47.8756  7356.39  85.0662
 48.0736  7338.55  85.4226
 48.2716  7276.2  84.8779
 48.4696  7438.06  85.4028
 48.6676  7321.12  85.3299
 48.8656  7369.46  85.3222
 49.0636  7443.02  85.6983
 49.2616  7126.54  83.8957
 49.4596  7349.46  84.7482
 49.6576  7292.2  84.6518
 49.8556  7380.67  85.1801
 50.0536  7179.11  84.4626
 50.2516  7261.67  85.0731
 50.4496  7161.37  84.1449
 50.6476  7199.66  84.0437
 50.8456  7234.9  84.3227
 51.0436  7018.85  83.5228
 51.2416  6905.08  82.5139
 51.4396  6861.89  82.6607
 51.6376  6878.48  82.5858
 51.8356  6980.68  82.8136
 52.0336  6889.1  82.7631
 52.2316  6859.07  82.9365
 52.4296  6799.45  82.2873
 52.6276  6824.03  82.5432
 52.8256  7024.45  83.2914
 53.0236  7011.35  83.8855
 53.2216  7022.64  83.9885
 53.4196  6790.75  82.4946
 53.6176  6862.89  83.4434
 53.8156  6783.27  82.6206
 54.0136  6671.73  82.1099
 54.2116  6679.83  81.7802
 54.4096  6622.9  81.5134
 54.6076  6487.08  81.0173
 54.8056  6443.74  80.5017
 55.0036  6456.08  80.9988
 55.2016  6512.12  80.9105
 55.3996  6347.29  79.8314
 55.5976  6385  80.266
 55.7956  6437.12  80.4092
 55.9936  6509.34  80.9678
 56.1916  6330.28  79.8885
 56.3896  6218.73  79.1594
 56.5876  6304.01  80.2542
 56.7856  6290.93  79.6722
 56.9836  6318.76  79.6198
 57.1816  6317.31  79.8832
 57.3796  6199.04  79.0518
 57.5776  6308.54  79.637
 57.7756  6121.69  79.1079
 57.9736  6132.54  78.8532
 58.1716  6108.12  78.9511
 58.3696  5965.86  77.7904
 58.5676  6001.39  77.4967
 58.7656  5865.63  77.2779
 58.9636  5924.12  77.6887
 59.1616  5903.14  77.6878
 59.3596  5944.07  77.2123
 59.5576  5778.62  76.1863
 59.7556  5958.3  77.7771
 59.9536  6148.46  78.9064
 60.1516  5848.07  77.7899
 60.1996  5841.53  80.8402