File: docs/examples/opeando_xrd/IS17_D/Data/IS17_D/17_Da_f00045.xye
# /beamlines/bl04/projects/cycle2025-II/20250340211-lsimonelli/DATA/IS17_D/17_Da_f00045.xye : mythproc.py merge -s 0.006 -l 0.5 -f /beamlines/bl04/inhouse/ff/FlatField/ff_20Nov2024rod8mm60s_17keV.raw -b True -c true -o xye /beamlines/bl04/projects/cycle2025-II/20250340211-lsimonelli/DATA/IS17_D/17_Da_00045.dat
# IsMon = [6774060, 6776664, 6778077]  IsPos = [-1.4999, -2.4884, -3.4986]
# Wave = 0.4962  CalPath /beamlines/bl04/projects/cycle2025-II/20250340211-lsimonelli/DATA/Align/Si_Pos1_25keV_f00001.cal
# Date = 2025-09-24_06:04:20 Dt = 4.8000  Bin = 0.0060  <imon> = 6776267 +/- 1664 (Min/Max) 6774060 / 6778077
# icurr 251.4424  mocoIn 1.7168E-05  mocoOut 0.8049  i15 7.08815e+06  imon 6.77627e+06  i7 7.0000  iEMpd_timer 4.8000  iEMpd_1 3.5115E-08  iEMpd_2 7.8039E-08  iEMpd_3 1.5839E-08  iEMpd_4 4.8501E-08  iEMhp_timer 4.8000  iEMhp_1 4.9135E-06  iEMhp_2 -2.5313E-08  iEMhp_3 -2.2738E-08  iEMhp_4 -2.1353E-08
#      9776
 1.7416  71976.1  268.404
 1.9396  47579.2  218.507
 2.1376  34417.4  185.838
 2.3356  30895.9  175.705
 2.5336  29033.8  170.927
 2.7316  27230.8  165.631
 2.9296  26046.1  162.162
 3.1276  25319.9  159.426
 3.3256  24998.5  158.06
 3.5236  26807.4  163.478
 3.7216  24448.9  157.384
 3.9196  23608.2  153.876
 4.1176  23528.8  153.384
 4.3156  24802.1  157.633
 4.5136  27102.5  163.759
 4.7116  28149.6  168.042
 4.9096  27444.8  165.358
 5.1076  27327  165.595
 5.3056  27624.1  166.101
 5.5036  27087  164.441
 5.7016  27440.2  165.52
 5.8996  28240.4  167.12
 6.0976  29009.7  170.844
 6.2956  29450.3  171.451
 6.4936  30085.1  172.482
 6.6916  30583.3  174.914
 6.8896  31473.8  177.298
 7.0876  32593.8  181.168
 7.2856  32388.9  179.642
 7.4836  32736  179.926
 7.6816  33595.6  182.813
 7.8796  34777.9  185.98
 8.0776  36480.9  191.475
 8.2756  38229.2  194.593
 8.4736  38786.5  195.823
 8.6716  38224.6  195.039
 8.8696  38241.1  195.584
 9.0676  37103.8  192.005
 9.2656  36166.3  190.259
 9.4636  35496.4  186.887
 9.6616  35018.7  186.404
 9.8596  33731.4  182.417
 10.0576  31867.7  177.974
 10.2556  30884.5  175.651
 10.4536  29405.7  170.997
 10.6516  28610.7  168.861
 10.8496  27828.8  165.943
 11.0476  27127  163.856
 11.2456  26319.6  161.934
 11.4436  26001.2  160.133
 11.6416  27664.9  165.543
 11.8396  25247.4  158.357
 12.0376  25188.7  157.799
 12.2356  24554.4  156.207
 12.4336  24606.4  155.92
 12.6316  24383.3  155.478
 12.8296  24720.1  156.181
 13.0276  25015.5  157.288
 13.2256  25307.4  158.58
 13.4236  25371.3  158.545
 13.6216  25028.2  157.488
 13.8196  24991.6  157.132
 14.0176  24763.9  156.705
 14.2156  24095.9  153.617
 14.4136  23037.5  151.59
 14.6116  22837.8  150.128
 14.8096  22113.3  147.707
 15.0076  20770.4  147.022
 15.2056  20427.6  141.554
 15.4036  19476  139.055
 15.6016  19140.4  136.929
 15.7996  18515.7  134.955
 15.9976  17814.9  135.354
 16.1956  17300.4  131.244
 16.3936  16925.2  128.982
 16.5916  16612.4  128.422
 16.7896  16544.2  128.216
 16.9876  16452.6  129.333
 17.1856  16533.6  127.994
 17.3836  15954.3  125.629
 17.5816  15403  123.936
 17.7796  15294.2  123.43
 17.9776  14745.3  121.975
 18.1756  14837.2  121.071
 18.3736  14690.5  120.97
 18.5716  14625.1  120.454
 18.7696  14509.7  119.549
 18.9676  14169.8  117.948
 19.1656  14179.4  118.542
 19.3636  14027.1  118.109
 19.5616  13950.2  117.952
 19.7596  14085.9  117.932
 19.9576  14247  118.647
 20.1556  14946.1  122.066
 20.3536  14788.2  120.774
 20.5516  13930.8  117.684
 20.7496  13592.6  116.185
 20.9476  13262.7  114.52
 21.1456  13473.3  115.752
 21.3436  13255.8  114.766
 21.5416  13251.3  114.747
 21.7396  13044.2  113.693
 21.9376  12914.3  112.891
 22.1356  13019.4  113.355
 22.3336  12978.3  113.585
 22.5316  12920.4  113.412
 22.7296  12875.2  112.572
 22.9276  12780.3  112.836
 23.1256  13097.1  113.698
 23.3236  13093.6  114.247
 23.5216  12832.7  112.768
 23.7196  12794.6  112.549
 23.9176  12487.7  110.946
 24.1156  12506.4  111.503
 24.3136  12159.4  110.751
 24.5116  12096.1  109.985
 24.7096  11884.5  108.828
 24.9076  11556.3  107.347
 25.1056  11268.6  106.466
 25.3036  11383.9  106.506
 25.5016  11269.1  106.001
 25.6996  11243  105.462
 25.8976  11147.5  105.449
 26.0956  11274.8  106.067
 26.2936  10947  104.161
 26.4916  11214.9  105.309
 26.6896  10917.8  104.202
 26.8876  10898.2  103.961
 27.0856  10828.2  103.695
 27.2836  10581.5  102.541
 27.4816  10583  102.322
 27.6796  10403.4  101.829
 27.8776  10414.6  101.746
 28.0756  10328.5  101.602
 28.2736  10210.5  100.607
 28.4716  10160.8  100.41
 28.6696  10017.7  99.5494
 28.8676  9903.72  99.3255
 29.0656  9837.17  98.971
 29.2636  9858.51  98.872
 29.4616  9710.95  98.3048
 29.6596  9918.56  98.9105
 29.8576  9663.72  98.3195
 30.0556  9733.1  98.5479
 30.2536  9704.25  98.1951
 30.4516  9666.61  97.6638
 30.6496  9613.12  97.1185
 30.8476  9750.55  98.2595
 31.0456  9550.96  97.2125
 31.2436  9640.06  96.917
 31.4416  9441.24  96.0983
 31.6396  9445.62  96.1678
 31.8376  9485.33  95.9155
 32.0356  9356  95.8143
 32.2336  9245.91  94.647
 32.4316  9121.26  94.4055
 32.6296  9235.94  94.8335
 32.8276  9212.31  94.482
 33.0256  9003.54  93.4816
 33.2236  8957  93.3893
 33.4216  9074.91  93.689
 33.6196  9144.45  94.3423
 33.8176  8931.23  93.4041
 34.0156  8956.82  93.1471
 34.2136  8880.69  92.7944
 34.4116  8759.95  92.3056
 34.6096  8844.56  92.6326
 34.8076  8679.81  92.1696
 35.0056  8698.18  91.963
 35.2036  8693.4  92.1405
 35.4016  8781.99  92.533
 35.5996  8529.59  91.2324
 35.7976  8645.32  92.1277
 35.9956  8648.63  91.782
 36.1936  8485.02  90.7832
 36.3916  8447.94  90.7605
 36.5896  8339.29  91.159
 36.7876  8543  91.648
 36.9856  8264.25  90.1681
 37.1836  8391.12  89.9441
 37.3816  8380.76  90.2571
 37.5796  8297.63  91.5592
 37.7776  8228.84  89.5398
 37.9756  8170.5  89.1084
 38.1736  8355.49  90.3072
 38.3716  8213.07  89.8133
 38.5696  8113.17  89.6446
 38.7676  7986.13  88.4467
 38.9656  8062.47  88.5019
 39.1636  8045.58  88.6812
 39.3616  8205.83  89.4825
 39.5596  7905.07  88.6647
 39.7576  8032.36  88.7436
 39.9556  8051.08  88.4935
 40.1536  8148.98  89.2315
 40.3516  8120.12  89.1853
 40.5496  8155.77  89.5459
 40.7476  8150.23  89.5136
 40.9456  8203.87  89.5552
 41.1436  8192.99  89.2218
 41.3416  8144.84  89.2902
 41.5396  8022.87  88.4308
 41.7376  8076.44  88.9932
 41.9356  7974.33  88.2836
 42.1336  7960.12  88.3608
 42.3316  7983.37  88.6846
 42.5296  8062.72  88.6328
 42.7276  8073.87  88.9403
 42.9256  7994.43  88.3645
 43.1236  7916.24  88.0454
 43.3216  7959.88  88.0366
 43.5196  7881.5  87.6596
 43.7176  7827.87  87.7648
 43.9156  7732.88  87.1343
 44.1136  7713.68  86.5743
 44.3116  7716.99  86.5997
 44.5096  7692.21  86.7783
 44.7076  7654.61  86.4959
 44.9056  7696.8  86.6073
 45.1036  7576.1  85.5526
 45.3016  7480.73  85.5087
 45.4996  7515.08  85.6458
 45.6976  7332.91  84.7743
 45.8956  7459.94  85.3273
 46.0936  7547.66  85.8293
 46.2916  7402.38  84.9824
 46.4896  7531.11  85.7518
 46.6876  7365.81  85.5129
 46.8856  7227.06  84.0718
 47.0836  7330.8  84.8222
 47.2816  7328.8  84.6781
 47.4796  7304.5  84.637
 47.6776  7126.65  84.5554
 47.8756  7112.2  83.6445
 48.0736  7258.65  84.949
 48.2716  7065  83.6356
 48.4696  7157.65  83.7728
 48.6676  7194.21  84.5855
 48.8656  7188.74  84.263
 49.0636  7119.18  83.821
 49.2616  6973.08  82.9837
 49.4596  7243.76  84.1416
 49.6576  7019.65  83.0513
 49.8556  6977.47  82.8217
 50.0536  6903.64  82.8278
 50.2516  6982.85  83.4361
 50.4496  6910.36  82.655
 50.6476  6896.56  82.2558
 50.8456  6855.28  82.0998
 51.0436  6741.68  81.8482
 51.2416  6688.91  81.1929
 51.4396  6637.04  81.2849
 51.6376  6727.09  81.6603
 51.8356  6706.47  81.1612
 52.0336  6586.76  80.9468
 52.2316  6581.41  81.2643
 52.4296  6607.66  81.1135
 52.6276  6628.47  81.3595
 52.8256  6659.65  81.1075
 53.0236  6496.38  80.7508
 53.2216  6478.44  80.6745
 53.4196  6378.94  79.9729
 53.6176  6298.6  79.9419
 53.8156  6401.23  80.2597
 54.0136  6418.48  80.5424
 54.2116  6376.02  79.9385
 54.4096  6365.63  79.9261
 54.6076  6371.09  80.3086
 54.8056  6336.53  79.8762
 55.0036  6322.2  80.1779
 55.2016  6369.4  80.0231
 55.3996  6348.13  79.8526
 55.5976  6362.45  80.1369
 55.7956  6305.97  79.5985
 55.9936  6248.37  79.3701
 56.1916  6353.13  80.0455
 56.3896  6325.98  79.8674
 56.5876  6125.28  79.1385
 56.7856  6221.93  79.2432
 56.9836  6238.77  79.1303
 57.1816  6304.14  79.931
 57.3796  6324.44  79.8201
 57.5776  6238.91  79.2365
 57.7756  6220.99  79.7681
 57.9736  6190.68  79.241
 58.1716  6233.5  79.756
 58.3696  6233.18  79.5024
 58.5676  6306.45  79.4249
 58.7656  6188.01  79.3646
 58.9636  6369.55  80.5535
 59.1616  6123.9  79.1087
 59.3596  6356.1  79.8364
 59.5576  6329.22  79.7283
 59.7556  6256.87  79.697
 59.9536  6213.83  79.3198
 60.1516  6262.73  80.4956
 60.1996  0.0000000E+00  0.0000000E+00