File: docs/examples/opeando_xrd/IS17_D/Data/IS17_D/17_Da_f00047.xye
# /beamlines/bl04/projects/cycle2025-II/20250340211-lsimonelli/DATA/IS17_D/17_Da_f00047.xye : mythproc.py merge -s 0.006 -l 0.5 -f /beamlines/bl04/inhouse/ff/FlatField/ff_20Nov2024rod8mm60s_17keV.raw -b True -c true -o xye /beamlines/bl04/projects/cycle2025-II/20250340211-lsimonelli/DATA/IS17_D/17_Da_00047.dat
# IsMon = [6788714, 6784641, 6789868]  IsPos = [-1.4999, -2.4885, -3.4988]
# Wave = 0.4962  CalPath /beamlines/bl04/projects/cycle2025-II/20250340211-lsimonelli/DATA/Align/Si_Pos1_25keV_f00001.cal
# Date = 2025-09-24_06:39:47 Dt = 4.8000  Bin = 0.0060  <imon> = 6787741 +/- 2242 (Min/Max) 6784641 / 6789868
# icurr 252.6695  mocoIn 1.7238E-05  mocoOut 0.8087  i15 7.1067e+06  imon 6.78774e+06  i7 4.6667  iEMpd_timer 4.8000  iEMpd_1 3.4878E-08  iEMpd_2 7.8081E-08  iEMpd_3 1.6519E-08  iEMpd_4 4.8251E-08  iEMhp_timer 4.8000  iEMhp_1 4.9365E-06  iEMhp_2 -2.6141E-08  iEMhp_3 -2.4154E-08  iEMhp_4 -2.1627E-08
#      9776
 1.7416  71521.7  267.493
 1.9396  47844.9  219.065
 2.1376  34444.9  185.868
 2.3356  30566.1  174.723
 2.5336  28958.5  170.665
 2.7316  27327.6  165.926
 2.9296  26155.8  162.503
 3.1276  25336.2  159.458
 3.3256  25038  158.2
 3.5236  26836.1  163.725
 3.7216  24455.2  157.403
 3.9196  23664.4  154.059
 4.1176  23611.3  153.638
 4.3156  24996.7  158.258
 4.5136  27157.3  163.935
 4.7116  28272.2  168.414
 4.9096  27600.9  165.828
 5.1076  27282.6  165.449
 5.3056  27452  165.693
 5.5036  27186.4  164.869
 5.7016  27698.7  166.298
 5.8996  28262.1  167.179
 6.0976  28958.9  170.685
 6.2956  29588.9  171.867
 6.4936  30205.5  172.828
 6.6916  30855.9  175.693
 6.8896  31606.4  177.668
 7.0876  32638.6  181.292
 7.2856  32460.5  179.835
 7.4836  32981.9  180.603
 7.6816  33770.2  183.29
 7.8796  34891.3  186.309
 8.0776  36634.1  191.903
 8.2756  38497.4  195.289
 8.4736  39291.9  197.116
 8.6716  38452.1  195.652
 8.8696  38301.7  195.708
 9.0676  37712.7  193.55
 9.2656  36557.3  191.26
 9.4636  36078.7  188.39
 9.6616  35098.5  186.595
 9.8596  33981.2  183.092
 10.0576  32362.7  179.366
 10.2556  31137.9  176.37
 10.4536  29641.4  171.683
 10.6516  28717.1  169.177
 10.8496  27971.1  166.364
 11.0476  27213.8  164.083
 11.2456  26629.6  162.893
 11.4436  26560.7  161.845
 11.6416  27991.6  166.521
 11.8396  25706.4  159.777
 12.0376  25444.9  158.585
 12.2356  24966.6  157.541
 12.4336  24866.3  156.74
 12.6316  24598.1  156.153
 12.8296  24694.5  156.099
 13.0276  25239.7  157.999
 13.2256  25428.9  158.963
 13.4236  25353.8  158.49
 13.6216  25150.9  157.867
 13.8196  25293.1  158.078
 14.0176  24934.4  157.251
 14.2156  24161.3  153.817
 14.4136  23233.3  152.235
 14.6116  22748.1  149.832
 14.8096  22247.8  148.156
 15.0076  20959.6  147.679
 15.2056  20266.5  141.014
 15.4036  19618.8  139.581
 15.6016  19380  137.798
 15.7996  18701.8  135.643
 15.9976  18083.5  136.382
 16.1956  17535.8  132.117
 16.3936  16847.1  128.669
 16.5916  16793.3  129.104
 16.7896  16706.1  128.823
 16.9876  16526.7  129.618
 17.1856  16495.6  127.86
 17.3836  16151.1  126.41
 17.5816  15551.1  124.526
 17.7796  15243  123.225
 17.9776  14945.4  122.79
 18.1756  15008  121.766
 18.3736  14809.9  121.472
 18.5716  14559.8  120.183
 18.7696  14596.8  119.905
 18.9676  14314.5  118.543
 19.1656  14232.4  118.752
 19.3636  14251.1  119.058
 19.5616  14049  118.372
 19.7596  14112.6  118.04
 19.9576  14240.5  118.627
 20.1556  15153.5  122.919
 20.3536  14532.8  119.733
 20.5516  14030.4  118.098
 20.7496  13759.1  116.891
 20.9476  13438.6  115.27
 21.1456  13550.7  116.083
 21.3436  13410.5  115.436
 21.5416  13286.4  114.898
 21.7396  13099  113.927
 21.9376  13162.3  113.966
 22.1356  13165.2  114.111
 22.3336  13152.6  114.338
 22.5316  13097.2  114.193
 22.7296  13072.8  113.455
 22.9276  12932.9  113.528
 23.1256  12918.8  112.929
 23.3236  13078.8  114.174
 23.5216  12981.8  113.405
 23.7196  12749.8  112.329
 23.9176  12757.1  112.121
 24.1156  12550.4  111.685
 24.3136  12208.4  110.976
 24.5116  12188  110.403
 24.7096  11806.3  108.477
 24.9076  11578.7  107.445
 25.1056  11548.6  107.511
 25.3036  11524.6  107.165
 25.5016  11373.6  106.49
 25.6996  11388.7  106.143
 25.8976  11089.6  105.17
 26.0956  11213  105.776
 26.2936  11171  105.225
 26.4916  11288.3  105.656
 26.6896  10962.4  104.416
 26.8876  10921  104.066
 27.0856  10977.7  104.346
 27.2836  10691.2  102.914
 27.4816  10585.5  102.327
 27.6796  10440.3  102.009
 27.8776  10383.4  101.586
 28.0756  10520.1  102.544
 28.2736  10380  101.436
 28.4716  10172.9  100.47
 28.6696  10217.4  100.533
 28.8676  10061.9  100.114
 29.0656  9951.5  99.546
 29.2636  9947.96  99.2338
 29.4616  9765.36  98.5905
 29.6596  9956.33  99.11
 29.8576  9782.24  98.9338
 30.0556  9770.57  98.7465
 30.2536  9832.33  98.8524
 30.4516  9647.83  97.5566
 30.6496  9533.45  96.704
 30.8476  9635.2  97.6654
 31.0456  9590.42  97.3987
 31.2436  9536.74  96.3819
 31.4416  9391.51  95.8441
 31.6396  9523.99  96.5682
 31.8376  9523.38  96.1084
 32.0356  9380.3  95.9522
 32.2336  9247.34  94.6478
 32.4316  9251.68  95.0842
 32.6296  9254.85  94.8617
 32.8276  9277.15  94.8096
 33.0256  9228.37  94.6425
 33.2236  9009.45  93.66
 33.4216  9278.08  94.7195
 33.6196  9322.83  95.264
 33.8176  9151.95  94.5511
 34.0156  9058.5  93.6752
 34.2136  8959.75  93.1955
 34.4116  8928.56  93.2003
 34.6096  8844.35  92.6298
 34.8076  8797.45  92.8041
 35.0056  8665.16  91.7876
 35.2036  8884.06  93.1418
 35.4016  8836.48  92.8255
 35.5996  8765.36  92.482
 35.7976  8581.61  91.7826
 35.9956  8687.09  91.9949
 36.1936  8631.43  91.5634
 36.3916  8544.67  91.2772
 36.5896  8483.58  92.3971
 36.7876  8564.58  91.7737
 36.9856  8319.11  90.4781
 37.1836  8381.16  89.9064
 37.3816  8382.56  90.2784
 37.5796  8283.62  91.4768
 37.7776  8299.52  89.91
 37.9756  8300.52  89.7989
 38.1736  8401.65  90.5469
 38.3716  8176.14  89.5981
 38.5696  8229.54  90.2783
 38.7676  8050.3  88.8029
 38.9656  8156.3  89.0163
 39.1636  8127.15  89.0935
 39.3616  8167.78  89.2791
 39.5596  7959.86  88.9775
 39.7576  7965.07  88.3745
 39.9556  8018.98  88.314
 40.1536  8162.34  89.3002
 40.3516  8208.32  89.574
 40.5496  8106.3  89.0602
 40.7476  8147.72  89.5076
 40.9456  8242.15  89.7679
 41.1436  8177.65  89.1331
 41.3416  8166.05  89.4088
 41.5396  8055.71  88.6127
 41.7376  8124.74  89.2585
 41.9356  8033.85  88.6138
 42.1336  8051.62  88.8594
 42.3316  7955.83  88.5317
 42.5296  8126.58  88.9839
 42.7276  8120.1  89.1941
 42.9256  8006.03  88.433
 43.1236  8048.73  88.7774
 43.3216  7992.99  88.3206
 43.5196  7815.71  87.3025
 43.7176  7870.75  88.001
 43.9156  7807.16  87.563
 44.1136  7758.36  86.8362
 44.3116  7737.09  86.7139
 44.5096  7734.88  87.0278
 44.7076  7645.09  86.4494
 44.9056  7706.55  86.6518
 45.1036  7751.68  86.5273
 45.3016  7595.17  86.1514
 45.4996  7492.74  85.5081
 45.6976  7504.73  85.7535
 45.8956  7546.35  85.8217
 46.0936  7554.92  85.8716
 46.2916  7503.42  85.5607
 46.4896  7695.48  86.6754
 46.6876  7379.98  85.5994
 46.8856  7357.05  84.7165
 47.0836  7395.91  85.1911
 47.2816  7309.25  84.5761
 47.4796  7294.16  84.5862
 47.6776  7188.35  84.9139
 47.8756  7325.93  84.8976
 48.0736  7242.84  84.8658
 48.2716  7134.28  84.0414
 48.4696  7265.13  84.398
 48.6676  7115.3  84.1204
 48.8656  7214.15  84.4225
 49.0636  7132.62  83.8872
 49.2616  6948.61  82.8435
 49.4596  7029.33  82.8804
 49.6576  7090.98  83.4761
 49.8556  6941.8  82.6099
 50.0536  7067.63  83.8015
 50.2516  6951.02  83.2154
 50.4496  6935.88  82.8118
 50.6476  6856.52  82.0177
 50.8456  6933.6  82.5579
 51.0436  6852.24  82.5256
 51.2416  6795.96  81.8497
 51.4396  6714.58  81.7674
 51.6376  6717.59  81.609
 51.8356  6765.6  81.5316
 52.0336  6624.49  81.1666
 52.2316  6725.74  82.1414
 52.4296  6702.11  81.68
 52.6276  6678.52  81.6587
 52.8256  6646.06  81.0172
 53.0236  6546.67  81.0624
 53.2216  6568.32  81.2336
 53.4196  6413.8  80.1935
 53.6176  6473.1  81.0434
 53.8156  6467.43  80.6786
 54.0136  6426.59  80.5898
 54.2116  6502.12  80.7216
 54.4096  6465.59  80.5561
 54.6076  6470.49  80.9319
 54.8056  6421.32  80.4043
 55.0036  6349.2  80.3515
 55.2016  6405.71  80.2422
 55.3996  6429.07  80.3673
 55.5976  6329.37  79.9282
 55.7956  6446.1  80.4721
 55.9936  6350.63  80.0069
 56.1916  6268.55  79.5084
 56.3896  6354.33  80.048
 56.5876  6272.48  80.0852
 56.7856  6293.89  79.6828
 56.9836  6292.14  79.468
 57.1816  6279.93  79.7712
 57.3796  6256.18  79.4237
 57.5776  6377.69  80.1158
 57.7756  6225.81  79.7971
 57.9736  6355.63  80.2933
 58.1716  6355.36  80.5357
 58.3696  6206.32  79.3444
 58.5676  6346.83  79.692
 58.7656  6228.71  79.6348
 58.9636  6342.49  80.3913
 59.1616  6278.65  80.1026
 59.3596  6379.84  79.986
 59.5576  6487.15  80.715
 59.7556  6203.41  79.354
 59.9536  6361.6  80.2556
 60.1516  6173.57  79.9187
 60.1996  0.0000000E+00  0.0000000E+00