File: docs/examples/opeando_xrd/IS17_D/Data/IS17_D/17_Db_f00140.xye
# /beamlines/bl04/projects/cycle2025-II/20250340211-lsimonelli/DATA/IS17_D/17_Db_f00140.xye : mythproc.py merge -s 0.006 -l 0.5 -f /beamlines/bl04/inhouse/ff/FlatField/ff_20Nov2024rod8mm60s_17keV.raw -b True -c true -o xye /beamlines/bl04/projects/cycle2025-II/20250340211-lsimonelli/DATA/IS17_D/17_Db_00140.dat
# IsMon = [6767402, 6768545, 6770882]  IsPos = [-1.4999, -2.4884, -3.4988]
# Wave = 0.4962  CalPath /beamlines/bl04/projects/cycle2025-II/20250340211-lsimonelli/DATA/Align/Si_Pos1_25keV_f00001.cal
# Date = 2025-09-25_08:44:20 Dt = 4.8000  Bin = 0.0060  <imon> = 6768943 +/- 1448 (Min/Max) 6767402 / 6770882
# icurr 251.4777  mocoIn 1.7160E-05  mocoOut 0.8046  i15 7.09348e+06  imon 6.76894e+06  i7 6.3333  iEMpd_timer 4.8000  iEMpd_1 3.5325E-08  iEMpd_2 7.7504E-08  iEMpd_3 1.8711E-08  iEMpd_4 4.7423E-08  iEMhp_timer 4.8000  iEMhp_1 4.9132E-06  iEMhp_2 -2.7292E-08  iEMhp_3 -2.3899E-08  iEMhp_4 -2.3062E-08
#      9776
 1.7416  70211.7  265.081
 1.9396  48463.3  220.521
 2.1376  35337.8  188.297
 2.3356  31937.2  178.632
 2.5336  30061  173.916
 2.7316  26874  164.549
 2.9296  25649.4  160.898
 3.1276  25374.8  159.589
 3.3256  24675.4  157.033
 3.5236  26309.8  161.946
 3.7216  24060.9  156.12
 3.9196  23688.3  154.108
 4.1176  23406.3  152.981
 4.3156  24323.5  156.111
 4.5136  27075.9  163.679
 4.7116  27732  166.788
 4.9096  27190.9  164.578
 5.1076  26628.2  163.458
 5.3056  27033.8  164.41
 5.5036  26756  163.48
 5.7016  27245.4  164.929
 5.8996  27882.4  166.07
 6.0976  28868  170.403
 6.2956  28786.7  169.504
 6.4936  29418.2  170.546
 6.6916  29754.8  172.512
 6.8896  30667.7  174.974
 7.0876  31664.9  178.563
 7.2856  31311.4  176.605
 7.4836  32035.9  177.983
 7.6816  33016.1  181.2
 7.8796  33611.4  182.829
 8.0776  35830.9  189.77
 8.2756  37007.3  191.468
 8.4736  37443.3  192.405
 8.6716  36895.6  191.623
 8.8696  37968.5  194.899
 9.0676  36927.2  191.527
 9.2656  35968.7  189.734
 9.4636  35046.4  185.721
 9.6616  34219.8  184.248
 9.8596  33562.7  181.935
 10.0576  31289.5  176.337
 10.2556  30998.5  175.972
 10.4536  31156.5  176.008
 10.6516  31750.8  177.893
 10.8496  28070.2  166.667
 11.0476  27439.1  164.797
 11.2456  28014.2  167.076
 11.4436  27062.2  163.365
 11.6416  26272.5  161.308
 11.8396  25197.8  158.179
 12.0376  24492.2  155.592
 12.2356  24846.4  157.137
 12.4336  24514.6  155.622
 12.6316  24212  154.927
 12.8296  24125.8  154.259
 13.0276  24548.1  155.813
 13.2256  24616.6  156.393
 13.4236  24705.4  156.451
 13.6216  24796.9  156.735
 13.8196  27264.7  163.806
 14.0176  24003.8  154.283
 14.2156  23570.2  151.917
 14.4136  22369.6  149.381
 14.6116  22034.9  147.453
 14.8096  21220.8  144.684
 15.0076  20377.5  145.685
 15.2056  19415.8  138.005
 15.4036  18456.3  135.382
 15.6016  18139  133.301
 15.7996  17694  131.926
 15.9976  17391.6  133.676
 16.1956  17062.8  130.301
 16.3936  16839.1  128.639
 16.5916  16558.2  128.195
 16.7896  16522.6  128.122
 16.9876  16381.8  129.042
 17.1856  16165.2  126.564
 17.3836  15688.8  124.594
 17.5816  15467.2  124.185
 17.7796  15366.3  123.712
 17.9776  15179.9  123.735
 18.1756  15416.4  123.422
 18.3736  15225.3  123.148
 18.5716  14616.1  120.414
 18.7696  14776.8  120.618
 18.9676  14459.3  119.126
 19.1656  14070.7  118.097
 19.3636  14062.2  118.258
 19.5616  14057.8  118.403
 19.7596  14329.7  118.947
 19.9576  14742.4  120.687
 20.1556  13962.6  117.981
 20.3536  13767.9  116.535
 20.5516  13427.6  115.525
 20.7496  13202.7  114.497
 20.9476  13184.3  114.18
 21.1456  13219.5  114.65
 21.3436  13011.9  113.705
 21.5416  12916.4  113.297
 21.7396  12754.9  112.427
 21.9376  12703.2  111.965
 22.1356  12836.3  112.679
 22.3336  12596  111.904
 22.5316  12561  111.837
 22.7296  12379.6  110.397
 22.9276  12323.6  110.812
 23.1256  12644.8  111.717
 23.3236  12622.3  112.197
 23.5216  12823.4  112.715
 23.7196  12644.9  111.889
 23.9176  12473.5  110.873
 24.1156  12371.2  110.878
 24.3136  12082.9  110.395
 24.5116  12106.8  110.011
 24.7096  11920.4  108.985
 24.9076  11635.3  107.712
 25.1056  11427.5  107.211
 25.3036  11118.5  105.245
 25.5016  11221.3  105.775
 25.6996  11170.7  105.12
 25.8976  11287.5  106.102
 26.0956  11045.8  104.971
 26.2936  11106.8  104.919
 26.4916  11151.6  104.985
 26.6896  10829  103.771
 26.8876  10729.9  103.151
 27.0856  10611.6  102.632
 27.2836  10499.7  101.976
 27.4816  10452.4  101.687
 27.6796  10392.6  101.767
 27.8776  10636.6  102.817
 28.0756  10218.6  101.055
 28.2736  10166.9  100.378
 28.4716  10033.2  99.7733
 28.6696  10088.5  99.8938
 28.8676  9912.24  99.3681
 29.0656  9753.82  98.5477
 29.2636  9776.49  98.4578
 29.4616  9480.24  97.1319
 29.6596  9615.48  97.3899
 29.8576  9373.39  96.8333
 30.0556  9388.64  96.7882
 30.2536  9476.84  97.0401
 30.4516  9686.24  97.7478
 30.6496  9696.98  97.533
 30.8476  9496.16  96.9548
 31.0456  9482.06  96.852
 31.2436  9479.26  96.1036
 31.4416  9363.39  95.7026
 31.6396  9591.27  96.9053
 31.8376  9534.82  96.1549
 32.0356  9349.89  95.777
 32.2336  9383.95  95.3494
 32.4316  9020.34  93.8746
 32.6296  9059.75  93.9184
 32.8276  8982.92  93.3068
 33.0256  8965.01  93.2773
 33.2236  9108.1  94.1695
 33.4216  8968.91  93.1256
 33.6196  8816.51  92.6263
 33.8176  8903.86  93.2554
 34.0156  8727.14  91.9515
 34.2136  8823.35  92.4872
 34.4116  8640.67  91.6836
 34.6096  8721.03  91.9865
 34.8076  8459.98  91.0117
 35.0056  8654.88  91.7215
 35.2036  8827.93  92.8666
 35.4016  8480.9  90.9293
 35.5996  8508.59  91.1114
 35.7976  8361.24  90.6015
 35.9956  8673.28  91.9141
 36.1936  8479.07  90.7203
 36.3916  8421.36  90.6199
 36.5896  8471.78  91.8858
 36.7876  8101.27  89.2474
 36.9856  7959.17  88.4847
 37.1836  8107.13  88.4167
 37.3816  8031.67  88.3637
 37.5796  8120.35  90.5742
 37.7776  8344.42  90.1692
 37.9756  8251.83  89.5517
 38.1736  8305.78  90.0313
 38.3716  8263.11  90.0728
 38.5696  8075.58  89.4211
 38.7676  8040.64  88.7475
 38.9656  8148.27  88.9649
 39.1636  7991.99  88.3833
 39.3616  8087.91  88.8398
 39.5596  7896.34  88.6111
 39.7576  7907.05  88.0628
 39.9556  8037.97  88.4239
 40.1536  8052.53  88.6941
 40.3516  8163.14  89.3105
 40.5496  8075.04  89.0862
 40.7476  8070.15  89.0618
 40.9456  8142.01  89.2188
 41.1436  8058.49  88.48
 41.3416  7856.79  87.6987
 41.5396  7914.49  87.8243
 41.7376  8025.71  88.7111
 41.9356  7928.51  88.0221
 42.1336  8122.39  89.2456
 42.3316  7923.24  88.3385
 42.5296  7966.77  88.0932
 42.7276  7912.02  88.0415
 42.9256  7913.49  87.9168
 43.1236  7899.05  87.9386
 43.3216  7926.52  87.8447
 43.5196  7802.05  87.2114
 43.7176  7785.85  87.5167
 43.9156  7537.66  86.0303
 44.1136  7603.51  85.9565
 44.3116  7722.62  86.6372
 44.5096  7579.97  86.1462
 44.7076  7644.41  86.4396
 44.9056  7720.44  86.7388
 45.1036  7639.42  85.9019
 45.3016  7638.12  86.3972
 45.4996  7502.48  85.5707
 45.6976  7521.36  85.8542
 45.8956  7652.75  86.4208
 46.0936  7655.46  86.4451
 46.2916  7617.53  86.2059
 46.4896  7775.38  87.1237
 46.6876  7531.09  86.4642
 46.8856  7523.05  85.6688
 47.0836  7407.92  85.2605
 47.2816  7410.65  85.1547
 47.4796  7491.84  85.7262
 47.6776  7374.5  86.0045
 47.8756  7479.22  85.7764
 48.0736  7488.33  86.2945
 48.2716  7398.62  85.5868
 48.4696  7563.05  86.1141
 48.6676  7435.3  85.9769
 48.8656  7545.87  86.3397
 49.0636  7504.12  86.0467
 49.2616  7370.72  85.3186
 49.4596  7359.03  84.8023
 49.6576  7344.89  84.9635
 49.8556  7375.34  85.1498
 50.0536  7349.81  85.4578
 50.2516  7314.87  85.3884
 50.4496  7348.59  85.2309
 50.6476  7334.01  84.8185
 50.8456  7311.82  84.7726
 51.0436  7180.07  84.4675
 51.2416  6980.87  82.9579
 51.4396  7000.2  83.4823
 51.6376  7125.47  84.045
 51.8356  7058.54  83.2668
 52.0336  7059.75  83.7952
 52.2316  6886.32  83.1147
 52.4296  7010.97  83.5615
 52.6276  6991.3  83.5469
 52.8256  7098.48  83.7459
 53.0236  7114.41  84.502
 53.2216  7009.07  83.9094
 53.4196  7040.63  83.9951
 53.6176  7067.18  84.673
 53.8156  7023.79  84.0759
 54.0136  6728.29  82.4539
 54.2116  6837.3  82.7537
 54.4096  6660.14  81.7379
 54.6076  6671.03  82.1522
 54.8056  6572.35  81.3307
 55.0036  6572.98  81.7413
 55.2016  6680.15  81.91
 55.3996  6484.52  80.6968
 55.5976  6539.07  81.229
 55.7956  6571.71  81.2426
 55.9936  6567.39  81.317
 56.1916  6495.79  80.9251
 56.3896  6346.26  79.9669
 56.5876  6380.35  80.7388
 56.7856  6333.91  79.9504
 56.9836  6441.07  80.3969
 57.1816  6539.26  81.3819
 57.3796  6313.31  79.7703
 57.5776  6361.24  79.9541
 57.7756  6276.09  80.1002
 57.9736  6237.4  79.5142
 58.1716  6202.56  79.5545
 58.3696  6109.04  78.7122
 58.5676  6229.84  78.9409
 58.7656  6025.66  78.3171
 58.9636  5975.25  78.0109
 59.1616  5939.12  77.9164
 59.3596  6098.55  78.2045
 59.5576  5964.88  77.3988
 59.7556  5861.95  77.1401
 59.9536  5942.26  77.5664
 60.1516  5985.36  78.6921
 60.1996  0.0000000E+00  0.0000000E+00