File: docs/examples/opeando_xrd/IS17_D/Data/IS17_D/17_Db_f00054.xye
# /beamlines/bl04/projects/cycle2025-II/20250340211-lsimonelli/DATA/IS17_D/17_Db_f00054.xye : mythproc.py merge -s 0.006 -l 0.5 -f /beamlines/bl04/inhouse/ff/FlatField/ff_20Nov2024rod8mm60s_17keV.raw -b True -c true -o xye /beamlines/bl04/projects/cycle2025-II/20250340211-lsimonelli/DATA/IS17_D/17_Db_00054.dat
# IsMon = [6774160, 6779345, 6778109]  IsPos = [-1.4999, -2.4884, -3.4988]
# Wave = 0.4962  CalPath /beamlines/bl04/projects/cycle2025-II/20250340211-lsimonelli/DATA/Align/Si_Pos1_25keV_f00001.cal
# Date = 2025-09-24_08:43:41 Dt = 4.8000  Bin = 0.0060  <imon> = 6777205 +/- 2211 (Min/Max) 6774160 / 6779345
# icurr 251.7312  mocoIn 1.7185E-05  mocoOut 0.8062  i15 7.09802e+06  imon 6.7772e+06  i7 4.6667  iEMpd_timer 4.8000  iEMpd_1 3.5929E-08  iEMpd_2 7.7929E-08  iEMpd_3 1.7519E-08  iEMpd_4 4.7625E-08  iEMhp_timer 4.8000  iEMhp_1 4.9201E-06  iEMhp_2 -2.6368E-08  iEMhp_3 -2.4314E-08  iEMhp_4 -2.1239E-08
#      9776
 1.7416  70621.2  265.882
 1.9396  49387.9  222.637
 2.1376  36027.1  190.147
 2.3356  32400  179.942
 2.5336  30339.2  174.738
 2.7316  27751.9  167.209
 2.9296  26279.6  162.871
 3.1276  26025.7  161.617
 3.3256  25160.1  158.547
 3.5236  26674.1  163.052
 3.7216  24407.4  157.237
 3.9196  24112.4  155.477
 4.1176  24101.3  155.237
 4.3156  25041.5  158.398
 4.5136  27315.5  164.393
 4.7116  28261.1  168.369
 4.9096  27593.2  165.793
 5.1076  27442.6  165.944
 5.3056  27196.9  164.902
 5.5036  27104.1  164.532
 5.7016  27334.2  165.196
 5.8996  28054.7  166.583
 6.0976  28817.4  170.253
 6.2956  29013.2  170.167
 6.4936  29827.7  171.742
 6.6916  30215.2  173.844
 6.8896  31039.5  176.047
 7.0876  31990.6  179.48
 7.2856  31929.1  178.347
 7.4836  32218.3  178.494
 7.6816  33065.9  181.335
 7.8796  33924.9  183.682
 8.0776  35455.9  188.761
 8.2756  37206.9  191.983
 8.4736  38139.5  194.173
 8.6716  37135.4  192.229
 8.8696  37674.8  194.161
 9.0676  36675.3  190.899
 9.2656  36051.8  189.968
 9.4636  34905.7  185.365
 9.6616  34344.8  184.601
 9.8596  33585.7  181.996
 10.0576  31365.2  176.533
 10.2556  30800.7  175.406
 10.4536  29609.4  171.563
 10.6516  28751.2  169.281
 10.8496  27569.1  165.181
 11.0476  26805.1  162.887
 11.2456  26072.7  161.171
 11.4436  26108.7  160.464
 11.6416  26833.1  163.016
 11.8396  25102.3  157.883
 12.0376  24513.8  155.664
 12.2356  24129.2  154.843
 12.4336  24111.5  154.34
 12.6316  24156.4  154.751
 12.8296  24136.8  154.285
 13.0276  24614.6  156.022
 13.2256  24808.8  157.007
 13.4236  24513.6  155.837
 13.6216  24976.6  157.317
 13.8196  26781.7  162.351
 14.0176  23936  154.06
 14.2156  23442.7  151.505
 14.4136  22504.8  149.826
 14.6116  22159  147.858
 14.8096  21334.2  145.067
 15.0076  20446.2  145.927
 15.2056  19711.3  139.047
 15.4036  18494.1  135.511
 15.6016  18306.6  133.909
 15.7996  17704.7  131.964
 15.9976  17435.8  133.873
 16.1956  17104.9  130.489
 16.3936  16659.4  127.948
 16.5916  16570.9  128.264
 16.7896  16583.6  128.363
 16.9876  16527.5  129.613
 17.1856  16150.1  126.49
 17.3836  15847.7  125.217
 17.5816  15272.8  123.406
 17.7796  15191.5  123.01
 17.9776  14681.6  121.702
 18.1756  14760.2  120.768
 18.3736  14340  119.509
 18.5716  14369.1  119.391
 18.7696  14399.6  119.084
 18.9676  14134.3  117.785
 19.1656  13884.9  117.317
 19.3636  13888.9  117.522
 19.5616  13733.5  117.039
 19.7596  14076.2  117.892
 19.9576  14476.9  119.595
 20.1556  14711.9  121.1
 20.3536  13824.3  116.777
 20.5516  13413  115.465
 20.7496  13317.5  114.987
 20.9476  13231.8  114.382
 21.1456  13135.1  114.284
 21.3436  12967.1  113.5
 21.5416  12794.1  112.759
 21.7396  12817.2  112.701
 21.9376  12719.3  112.042
 22.1356  12805.5  112.538
 22.3336  12483.5  111.392
 22.5316  12290.9  110.617
 22.7296  12500  110.927
 22.9276  12388.4  111.094
 23.1256  12495.5  111.058
 23.3236  12747.7  112.764
 23.5216  12634.5  111.888
 23.7196  12598.1  111.688
 23.9176  12569.5  111.313
 24.1156  12430.1  111.146
 24.3136  11922  109.658
 24.5116  12070.1  109.859
 24.7096  11692.2  107.919
 24.9076  11732.5  108.156
 25.1056  11209.3  106.171
 25.3036  11035.1  104.856
 25.5016  10984.8  104.651
 25.6996  11071.9  104.656
 25.8976  11081.4  105.139
 26.0956  10924.3  104.397
 26.2936  10944.4  104.148
 26.4916  11147.1  104.974
 26.6896  10783.1  103.543
 26.8876  10696.9  102.99
 27.0856  10532.3  102.253
 27.2836  10416.5  101.578
 27.4816  10314.4  101.018
 27.6796  10290.6  101.268
 27.8776  10502  102.158
 28.0756  10122.4  100.579
 28.2736  10037  99.7401
 28.4716  9926.88  99.2472
 28.6696  9891.89  98.9133
 28.8676  9923.78  99.4289
 29.0656  9692.76  98.2414
 29.2636  9779.62  98.4703
 29.4616  9394.78  96.6874
 29.6596  9596.21  97.2869
 29.8576  9373.54  96.8306
 30.0556  9460.58  97.1595
 30.2536  9585.27  97.587
 30.4516  9542.02  97.0226
 30.6496  9546.4  96.7819
 30.8476  9632.48  97.6597
 31.0456  9556.68  97.2404
 31.2436  9485.93  96.1439
 31.4416  9337.58  95.5662
 31.6396  9367.39  95.7578
 31.8376  9407.5  95.4948
 32.0356  9334.62  95.6853
 32.2336  9306.67  94.9538
 32.4316  8915.39  93.3269
 32.6296  9035.16  93.7886
 32.8276  8998.42  93.3863
 33.0256  8897.32  92.9274
 33.2236  8981.45  93.5053
 33.4216  8901.3  92.7789
 33.6196  8912.78  93.1236
 33.8176  8840.14  92.9198
 34.0156  8787.79  92.2716
 34.2136  8780.26  92.2524
 34.4116  8592.57  91.4279
 34.6096  8721.25  91.9869
 34.8076  8489.91  91.1735
 35.0056  8602.07  91.4431
 35.2036  8787.04  92.6514
 35.4016  8492.66  90.992
 35.5996  8506.41  91.1038
 35.7976  8445.08  91.0464
 35.9956  8424.53  90.5859
 36.1936  8562.69  91.1753
 36.3916  8315.8  90.0526
 36.5896  8214.12  90.4783
 36.7876  8131.83  89.4124
 36.9856  7979.26  88.5943
 37.1836  8131.2  88.5407
 37.3816  8055.61  88.494
 37.5796  8149.32  90.7413
 37.7776  8149.72  89.1219
 37.9756  8200.91  89.2795
 38.1736  8110.59  88.9759
 38.3716  8136.48  89.3829
 38.5696  7964.14  88.8087
 38.7676  7913.99  88.0378
 38.9656  8095.18  88.6719
 39.1636  8095.41  88.9343
 39.3616  8109.41  88.946
 39.5596  7903.15  88.6619
 39.7576  7942.97  88.2625
 39.9556  7863.5  87.4612
 40.1536  8002.88  88.4206
 40.3516  8043.25  88.664
 40.5496  7962.61  88.4708
 40.7476  7997.5  88.6583
 40.9456  8066.27  88.8006
 41.1436  8117.57  88.8102
 41.3416  7913.98  88.0169
 41.5396  7903.19  87.7687
 41.7376  7898  87.9941
 41.9356  7844.27  87.5577
 42.1336  7986.92  88.4981
 42.3316  7913.38  88.2878
 42.5296  7927.78  87.8865
 42.7276  7939.82  88.1974
 42.9256  7856.38  87.6002
 43.1236  7793.33  87.3516
 43.3216  7846.27  87.3966
 43.5196  7755.54  86.9563
 43.7176  7768.39  87.4196
 43.9156  7595.4  86.3544
 44.1136  7653.94  86.2355
 44.3116  7626.14  86.0947
 44.5096  7638.11  86.4701
 44.7076  7587.1  86.1111
 44.9056  7784.7  87.1081
 45.1036  7768.39  86.6364
 45.3016  7592.62  86.1556
 45.4996  7704.68  86.7258
 45.6976  7439.46  85.3887
 45.8956  7605.2  86.15
 46.0936  7665.56  86.5026
 46.2916  7674  86.5071
 46.4896  7556.7  85.8853
 46.6876  7490.25  86.2312
 46.8856  7393.28  84.9255
 47.0836  7531.07  85.9737
 47.2816  7343.69  84.7681
 47.4796  7504.81  85.8043
 47.6776  7422.74  86.2873
 47.8756  7395.34  85.2963
 48.0736  7430.67  85.963
 48.2716  7377.57  85.4586
 48.4696  7559.85  86.0914
 48.6676  7366.61  85.5831
 48.8656  7505.77  86.1096
 49.0636  7513.36  86.1098
 49.2616  7296.88  84.8873
 49.4596  7361.01  84.8121
 49.6576  7397.31  85.2548
 49.8556  7378.86  85.1709
 50.0536  7333.7  85.3672
 50.2516  7373.97  85.7351
 50.4496  7321.24  85.0718
 50.6476  7348.31  84.8967
 50.8456  7278.77  84.583
 51.0436  7131.18  84.177
 51.2416  7003.13  83.0879
 51.4396  7013.57  83.5514
 51.6376  7042.58  83.5466
 51.8356  7135.18  83.7121
 52.0336  7083.18  83.9306
 52.2316  6998.8  83.8057
 52.4296  6953.57  83.2266
 52.6276  7073.28  84.0491
 52.8256  7025.86  83.3243
 53.0236  7160.56  84.7659
 53.2216  7050.72  84.1539
 53.4196  6900.76  83.1576
 53.6176  7043.93  84.5289
 53.8156  6992.51  83.8855
 54.0136  6740.14  82.5254
 54.2116  6849.72  82.8291
 54.4096  6674.74  81.8272
 54.6076  6714.92  82.4223
 54.8056  6564.71  81.2715
 55.0036  6588.68  81.8424
 55.2016  6725.81  82.208
 55.3996  6496.68  80.7696
 55.5976  6561.4  81.3753
 55.7956  6498.7  80.777
 55.9936  6653.93  81.8669
 56.1916  6485.44  80.8685
 56.3896  6335.2  79.8918
 56.5876  6326.06  80.409
 56.7856  6330.18  79.909
 56.9836  6453.95  80.4674
 57.1816  6451.07  80.8028
 57.3796  6243.24  79.3199
 57.5776  6333.69  79.7931
 57.7756  6248.4  79.9129
 57.9736  6184.32  79.1721
 58.1716  6212.53  79.6233
 58.3696  6028.65  78.181
 58.5676  6008.05  77.5268
 58.7656  5995.24  78.1103
 58.9636  6054.2  78.5265
 59.1616  6052.44  78.6417
 59.3596  5961.98  77.3298
 59.5576  6014.56  77.7264
 59.7556  5995.78  78.0216
 59.9536  5979.7  77.8163
 60.1516  5998.84  78.7867
 60.1996  0.0000000E+00  0.0000000E+00