File: docs/examples/XRD/IS17_D/Data/IS17_D_fresh/17_D_fresh_f00003.xye
# /beamlines/bl04/projects/cycle2025-II/20250340211-lsimonelli/DATA/IS17_D_fresh/17_D_fresh_f00003.xye : mythproc.py merge -s 0.006 -l 0.5 -f /beamlines/bl04/inhouse/ff/FlatField/ff_20Nov2024rod8mm60s_17keV.raw -b True -c true -o xye /beamlines/bl04/projects/cycle2025-II/20250340211-lsimonelli/DATA/IS17_D_fresh/17_D_fresh_00003.dat
# IsMon = [6747461, 6744475, 6748218]  IsPos = [-1.4999, -2.4885, -3.4986]
# Wave = 0.4962  CalPath /beamlines/bl04/projects/cycle2025-II/20250340211-lsimonelli/DATA/Align/Si_Pos1_25keV_f00001.cal
# Date = 2025-09-24_02:15:50 Dt = 4.8000  Bin = 0.0060  <imon> = 6746718 +/- 1616 (Min/Max) 6744475 / 6748218
# icurr 248.8259  mocoIn 1.6979E-05  mocoOut 0.7969  i15 7.06206e+06  imon 6.74672e+06  i7 5.6667  iEMpd_timer 4.8000  iEMpd_1 3.5914E-08  iEMpd_2 7.8463E-08  iEMpd_3 1.6523E-08  iEMpd_4 4.8005E-08  iEMhp_timer 4.8000  iEMhp_1 4.8632E-06  iEMhp_2 -2.5211E-08  iEMhp_3 -2.3906E-08  iEMhp_4 -2.2572E-08
#      9776
 1.7416  67473.8  259.817
 1.9396  43845  209.708
 2.1376  30840.6  175.879
 2.3356  27815.4  166.679
 2.5336  25880.2  161.342
 2.7316  24846.6  158.201
 2.9296  23992.8  155.632
 3.1276  23367  153.133
 3.3256  23393.1  152.904
 3.5236  25130.2  158.437
 3.7216  23084  152.928
 3.9196  22759.9  151.092
 4.1176  22754.7  150.826
 4.3156  24047.7  155.219
 4.5136  26582.2  162.185
 4.7116  27850  167.152
 4.9096  27130.6  164.409
 5.1076  26890.4  164.252
 5.3056  27404.2  165.445
 5.5036  27395.3  165.424
 5.7016  27651.7  166.155
 5.8996  28438.7  167.698
 6.0976  28955.1  170.676
 6.2956  29874.2  172.69
 6.4936  30575.2  173.888
 6.6916  30923.1  175.882
 6.8896  31749.6  178.082
 7.0876  32785.4  181.693
 7.2856  32670  180.415
 7.4836  33035.3  180.734
 7.6816  33993.8  183.897
 7.8796  35702.8  188.454
 8.0776  37297.7  193.633
 8.2756  39383.7  197.534
 8.4736  40311.2  199.655
 8.6716  39583.7  198.502
 8.8696  38890.7  197.191
 9.0676  38053.5  194.417
 9.2656  37219.1  192.977
 9.4636  36997  190.754
 9.6616  36068.7  189.156
 9.8596  35056.4  185.955
 10.0576  33212.6  181.683
 10.2556  32047.6  178.904
 10.4536  30922.1  175.335
 10.6516  30391.3  174.01
 10.8496  29303  170.26
 11.0476  28543.9  168.039
 11.2456  28049.3  167.17
 11.4436  27782.7  165.514
 11.6416  27723.7  165.72
 11.8396  25947.2  160.522
 12.0376  26126.2  160.684
 12.2356  25475.1  159.124
 12.4336  25605.4  159.04
 12.6316  25014.4  157.446
 12.8296  25682.8  159.192
 13.0276  26115.4  160.704
 13.2256  26301.4  161.654
 13.4236  26119.1  160.845
 13.6216  25686.3  159.534
 13.8196  25853.4  159.813
 14.0176  25488  158.978
 14.2156  25034.8  156.578
 14.4136  23706.9  153.756
 14.6116  23385.9  151.91
 14.8096  22773.6  149.893
 15.0076  21655.4  150.059
 15.2056  21506.9  145.254
 15.4036  20354.2  142.175
 15.6016  20102.7  140.345
 15.7996  19565  138.731
 15.9976  18481.2  137.887
 16.1956  17608  132.392
 16.3936  17496.5  131.127
 16.5916  17199.2  130.653
 16.7896  16969.6  129.832
 16.9876  17101.5  131.849
 17.1856  16966.3  129.657
 17.3836  16459.2  127.597
 17.5816  15881.6  125.832
 17.7796  15638.7  124.798
 17.9776  15564.5  125.302
 18.1756  15945.1  125.485
 18.3736  15703.1  125.08
 18.5716  15196.3  122.784
 18.7696  15294.9  122.74
 18.9676  14949.3  121.144
 19.1656  14992.7  121.88
 19.3636  14705.5  120.922
 19.5616  14647.9  120.852
 19.7596  14658.9  120.299
 19.9576  15099.1  122.149
 20.1556  15353.6  123.729
 20.3536  14479.7  119.515
 20.5516  14380.6  119.555
 20.7496  14115.4  118.391
 20.9476  13795.6  116.779
 21.1456  14163.8  118.678
 21.3436  13833.4  117.226
 21.5416  13747.7  116.861
 21.7396  13632.5  116.217
 21.9376  13350.1  114.766
 22.1356  13632.5  115.988
 22.3336  13691.6  116.656
 22.5316  13556.4  116.192
 22.7296  13621.3  115.808
 22.9276  13503.7  116.004
 23.1256  13552.4  115.67
 23.3236  13252.3  114.928
 23.5216  13210.1  114.399
 23.7196  13163.2  114.145
 23.9176  12959.6  113.006
 24.1156  12766.8  112.644
 24.3136  12499.5  112.28
 24.5116  12575.4  112.14
 24.7096  12242.2  110.455
 24.9076  11910.4  108.965
 25.1056  11913.6  109.188
 25.3036  11730.1  108.118
 25.5016  11739.8  108.185
 25.6996  11759.3  107.846
 25.8976  11594.1  107.529
 26.0956  11570  107.448
 26.2936  11516.1  106.836
 26.4916  11543.4  106.844
 26.6896  11244.7  105.75
 26.8876  11098.5  104.908
 27.0856  11221.2  105.499
 27.2836  11009.6  104.592
 27.4816  10792.2  103.323
 27.6796  10803  103.767
 27.8776  10711.4  103.178
 28.0756  10729.2  103.557
 28.2736  10639.6  102.699
 28.4716  10543.9  102.277
 28.6696  10621  102.497
 28.8676  10456.2  102.057
 29.0656  10255.6  101.045
 29.2636  10243.7  100.692
 29.4616  10150.5  100.514
 29.6596  10209.6  100.362
 29.8576  10089.7  100.474
 30.0556  10149.3  100.639
 30.2536  10223.6  100.797
 30.4516  9877.19  98.7077
 30.6496  9824.05  98.1662
 30.8476  9707.45  98.0336
 31.0456  9738.4  98.1502
 31.2436  9782.21  97.622
 31.4416  9829.42  98.0471
 31.6396  9794.35  97.9225
 31.8376  9824.02  97.6116
 32.0356  9647.78  97.3098
 32.2336  9520.39  96.025
 32.4316  9442.89  96.0576
 32.6296  9464.64  95.93
 32.8276  9407.7  95.4702
 33.0256  9293.29  94.959
 33.2236  9188.15  94.5756
 33.4216  9291.89  94.7872
 33.6196  9342.1  95.3557
 33.8176  9158.57  94.5832
 34.0156  9049.07  93.6278
 34.2136  9088.62  93.8627
 34.4116  8953.47  93.3246
 34.6096  8887.14  92.8507
 34.8076  8761.8  92.6088
 35.0056  8923.75  93.1355
 35.2036  8784.31  92.6285
 35.4016  8854.83  92.9232
 35.5996  8690.47  92.0892
 35.7976  8654.7  92.1869
 35.9956  8673.07  91.9227
 36.1936  8602.83  91.4144
 36.3916  8460.18  90.8294
 36.5896  8430.54  92.1117
 36.7876  8357  90.6467
 36.9856  8214.38  89.8911
 37.1836  8101.42  88.3837
 37.3816  8218.44  89.3891
 37.5796  8253.33  91.3216
 37.7776  8216.6  89.4631
 37.9756  8213.57  89.3329
 38.1736  8118.39  89.01
 38.3716  8112.45  89.2508
 38.5696  8096.47  89.5493
 38.7676  8130.1  89.2399
 38.9656  8128.82  88.8613
 39.1636  8067.54  88.7684
 39.3616  7949.99  88.0835
 39.5596  7851.75  88.3572
 39.7576  7761.19  87.2457
 39.9556  7887.09  87.5913
 40.1536  7911.76  87.9197
 40.3516  7970.64  88.3471
 40.5496  7889.32  87.865
 40.7476  7907.03  88.1775
 40.9456  7962.34  88.2348
 41.1436  7924.86  87.7454
 41.3416  7888.96  87.8834
 41.5396  7827.09  87.3478
 41.7376  7770.28  87.2882
 41.9356  7672.27  86.5913
 42.1336  7812.41  87.5297
 42.3316  7727.79  87.2532
 42.5296  7680.99  86.5114
 42.7276  7674.07  86.7069
 42.9256  7662.78  86.5133
 43.1236  7667.72  86.6531
 43.3216  7717.66  86.7897
 43.5196  7618.59  86.1943
 43.7176  7572.82  86.3166
 43.9156  7629.44  86.5596
 44.1136  7622.36  86.0708
 44.3116  7640.64  86.1801
 44.5096  7567.74  86.0809
 44.7076  7552.9  85.93
 44.9056  7542.18  85.7205
 45.1036  7397.85  84.5289
 45.3016  7353.57  84.7713
 45.4996  7312.69  84.4568
 45.6976  7269.48  84.3879
 45.8956  7278.59  84.2793
 46.0936  7256.84  84.1407
 46.2916  7261.9  84.1674
 46.4896  7256.69  84.1771
 46.6876  7168.06  84.3568
 46.8856  7333.1  84.7035
 47.0836  7188.22  83.9875
 47.2816  7214.81  84.0204
 47.4796  7281.59  84.5108
 47.6776  7207.92  85.0308
 47.8756  7255.89  84.4734
 48.0736  7088.97  83.9397
 48.2716  7165.54  84.2273
 48.4696  7238.33  84.2519
 48.6676  7152.5  84.3325
 48.8656  7162.63  84.1354
 49.0636  7073.12  83.548
 49.2616  7144.86  83.9923
 49.4596  7301.76  84.482
 49.6576  7083.8  83.4419
 49.8556  7114.09  83.6119
 50.0536  7195.23  84.5485
 50.2516  7103.19  84.1268
 50.4496  7161.74  84.1367
 50.6476  6995.34  82.8343
 50.8456  7064.86  83.3541
 51.0436  7190.01  84.5353
 51.2416  7145.31  83.934
 51.4396  7015.07  83.5749
 51.6376  6977.98  83.1773
 51.8356  7148.81  83.8096
 52.0336  6746.11  81.909
 52.2316  6829.29  82.767
 52.4296  6910.21  82.9362
 52.6276  6894.84  82.953
 52.8256  6817.01  82.0493
 53.0236  6778.25  82.4767
 53.2216  6728.36  82.2031
 53.4196  6693.69  81.9257
 53.6176  6630.5  82.0133
 53.8156  6713.66  82.19
 54.0136  6644.83  81.9387
 54.2116  6711.11  82.0072
 54.4096  6720.86  82.1267
 54.6076  6658.81  82.0875
 54.8056  6648.41  81.8169
 55.0036  6660.14  82.2909
 55.2016  6640.57  81.6917
 55.3996  6708.51  82.0935
 55.5976  6627.29  81.7767
 55.7956  6684.78  81.9481
 55.9936  6630.54  81.7526
 56.1916  6723.5  82.3362
 56.3896  6712.67  82.2753
 56.5876  6511.25  81.5902
 56.7856  6576.67  81.4501
 56.9836  6456.42  80.4917
 57.1816  6528.75  81.3307
 57.3796  6612.21  81.6192
 57.5776  6679.59  81.9952
 57.7756  6497.55  81.5145
 57.9736  6539.33  81.4452
 58.1716  6636.07  82.2845
 58.3696  6606.19  81.8554
 58.5676  6689.67  81.826
 58.7656  6797.94  83.1923
 58.9636  6602.42  82.0125
 59.1616  6788.26  83.3016
 59.3596  6692.89  81.9291
 59.5576  6717.63  82.1401
 59.7556  6494.44  81.1977
 59.9536  6740.26  82.6133
 60.1516  6668.76  83.0658
 60.1996  0.0000000E+00  0.0000000E+00