File: docs/examples/XRD/IS17_D/Data/IS17_D_fresh/17_D_fresh_f00004.xye
# /beamlines/bl04/projects/cycle2025-II/20250340211-lsimonelli/DATA/IS17_D_fresh/17_D_fresh_f00004.xye : mythproc.py merge -s 0.006 -l 0.5 -f /beamlines/bl04/inhouse/ff/FlatField/ff_20Nov2024rod8mm60s_17keV.raw -b True -c true -o xye /beamlines/bl04/projects/cycle2025-II/20250340211-lsimonelli/DATA/IS17_D_fresh/17_D_fresh_00004.dat
# IsMon = [6775269, 6771781, 6774327]  IsPos = [-1.4999, -2.4885, -3.4988]
# Wave = 0.4962  CalPath /beamlines/bl04/projects/cycle2025-II/20250340211-lsimonelli/DATA/Align/Si_Pos1_25keV_f00001.cal
# Date = 2025-09-24_06:26:11 Dt = 4.8000  Bin = 0.0060  <imon> = 6773792 +/- 1473 (Min/Max) 6771781 / 6775269
# icurr 251.0099  mocoIn 1.7129E-05  mocoOut 0.8034  i15 7.08749e+06  imon 6.77379e+06  i7 6.3333  iEMpd_timer 4.8000  iEMpd_1 3.4791E-08  iEMpd_2 7.7900E-08  iEMpd_3 1.6953E-08  iEMpd_4 4.9390E-08  iEMhp_timer 4.8000  iEMhp_1 4.9042E-06  iEMhp_2 -2.5218E-08  iEMhp_3 -2.3446E-08  iEMhp_4 -2.1637E-08
#      9776
 1.7416  70590.1  265.735
 1.9396  46483.3  215.919
 2.1376  33735.9  183.939
 2.3356  30556.8  174.69
 2.5336  28636.3  169.707
 2.7316  27311.9  165.859
 2.9296  26296.2  162.928
 3.1276  25577.6  160.216
 3.3256  25499.9  159.639
 3.5236  27104.9  164.536
 3.7216  25079.8  159.402
 3.9196  24543.8  156.897
 4.1176  24270.3  155.773
 4.3156  25709.9  160.501
 4.5136  27923.7  166.227
 4.7116  29092.4  170.839
 4.9096  28497.9  168.499
 5.1076  28259.2  168.384
 5.3056  28693.7  169.405
 5.5036  28513.7  168.839
 5.7016  28947.7  170.003
 5.8996  29608  171.109
 6.0976  30467.8  175.073
 6.2956  31157.3  176.36
 6.4936  32051.8  178.029
 6.6916  32613.1  180.627
 6.8896  33438.3  182.757
 7.0876  34703.3  186.935
 7.2856  34696.3  185.921
 7.4836  35388.4  187.063
 7.6816  36131.2  189.587
 7.8796  38255.2  195.081
 8.0776  39949.1  200.403
 8.2756  41871.1  203.678
 8.4736  42729.3  205.561
 8.6716  42423.6  205.503
 8.8696  41539.1  203.808
 9.0676  40756.6  201.205
 9.2656  40154.9  200.45
 9.4636  39831.7  197.927
 9.6616  38864.9  196.361
 9.8596  37557.8  192.47
 10.0576  35822  188.693
 10.2556  34357.9  185.233
 10.4536  32578.6  179.966
 10.6516  32147.1  178.967
 10.8496  30934.1  174.936
 11.0476  30101.2  172.562
 11.2456  29472.7  171.357
 11.4436  29014.4  169.153
 11.6416  30466.1  173.725
 11.8396  28013.7  166.79
 12.0376  28072.9  166.566
 12.2356  27478.1  165.266
 12.4336  27205.7  163.933
 12.6316  26765.9  162.868
 12.8296  27468.1  164.632
 13.0276  28053.8  166.573
 13.2256  28208.9  167.414
 13.4236  28045.7  166.678
 13.6216  27553.1  165.225
 13.8196  27825.9  165.784
 14.0176  27532.9  165.23
 14.2156  26679.4  161.633
 14.4136  25570.1  159.686
 14.6116  25287.4  157.968
 14.8096  24256.6  154.706
 15.0076  23122.8  155.07
 15.2056  22992.6  150.201
 15.4036  21783.7  147.094
 15.6016  21524  145.225
 15.7996  20762  142.922
 15.9976  19828.7  142.821
 16.1956  18999.5  137.519
 16.3936  18632.6  135.318
 16.5916  18306.1  134.791
 16.7896  18367.2  135.08
 16.9876  18218.5  136.097
 17.1856  18149.3  134.101
 17.3836  17626.9  132.018
 17.5816  16921.2  129.885
 17.7796  16736.6  129.102
 17.9776  16429.6  128.746
 18.1756  16592.3  128.011
 18.3736  16332.9  127.561
 18.5716  16181.7  126.695
 18.7696  16180.9  126.247
 18.9676  15740.4  124.304
 19.1656  15729  124.852
 19.3636  15740.8  125.104
 19.5616  15453.9  124.137
 19.7596  15463.7  123.535
 19.9576  15662.2  124.404
 20.1556  16411.5  127.919
 20.3536  16228.8  126.519
 20.5516  15316.7  123.391
 20.7496  15167.6  122.729
 20.9476  14870.2  121.247
 21.1456  14953.1  121.942
 21.3436  14820.6  121.335
 21.5416  14565.5  120.291
 21.7396  14375.9  119.335
 21.9376  14431.9  119.325
 22.1356  14612.9  120.214
 22.3336  14489  120.009
 22.5316  14341.4  119.513
 22.7296  14418.7  119.15
 22.9276  14360.5  119.63
 23.1256  14491.7  119.616
 23.3236  14084.7  118.494
 23.5216  14055  117.999
 23.7196  13709.7  116.483
 23.9176  13821.6  116.704
 24.1156  13719.2  116.774
 24.3136  13166.5  115.227
 24.5116  13215  114.949
 24.7096  13068  114.118
 24.9076  12592.1  112.037
 25.1056  12575.9  112.18
 25.3036  12489.7  111.561
 25.5016  12467  111.487
 25.6996  12435.5  110.908
 25.8976  12201.2  110.307
 26.0956  12189  110.286
 26.2936  12315.4  110.475
 26.4916  12338.5  110.463
 26.6896  12017.1  109.31
 26.8876  11797.3  108.161
 27.0856  11895  108.621
 27.2836  11686.8  107.592
 27.4816  11496.8  106.648
 27.6796  11413.2  106.656
 27.8776  11312.9  106.03
 28.0756  11425.5  106.865
 28.2736  11236.1  105.532
 28.4716  11083.9  104.861
 28.6696  11147.9  105.007
 28.8676  11053.3  104.925
 29.0656  10865.9  104.013
 29.2636  10858.1  103.658
 29.4616  10854.8  103.944
 29.6596  10907.8  103.738
 29.8576  10591.9  102.945
 30.0556  10719.6  103.431
 30.2536  10878.3  103.978
 30.4516  10548.2  102.012
 30.6496  10419  101.098
 30.8476  10408.9  101.515
 31.0456  10370.1  101.278
 31.2436  10308.5  100.213
 31.4416  10407.5  100.885
 31.6396  10323.8  100.533
 31.8376  10404.1  100.445
 32.0356  10268.9  100.39
 32.2336  10166  99.218
 32.4316  10011.5  98.9068
 32.6296  10010.6  98.6568
 32.8276  10091.9  98.8957
 33.0256  9850.18  97.7729
 33.2236  9907.49  98.2151
 33.4216  9937.12  98.0242
 33.6196  9921  98.2706
 33.8176  9914.32  98.4104
 34.0156  9695.96  96.9217
 34.2136  9724.06  97.0856
 34.4116  9590.26  96.5829
 34.6096  9440  95.6955
 34.8076  9452.27  96.187
 35.0056  9340.84  95.2973
 35.2036  9380.53  95.7038
 35.4016  9323.4  95.3538
 35.5996  9307.65  95.3029
 35.7976  9189.36  94.9894
 35.9956  9245.09  94.9048
 36.1936  9143.06  94.2424
 36.3916  9022.16  93.798
 36.5896  8995.52  95.1598
 36.7876  8889.24  93.4955
 36.9856  8719.69  92.6218
 37.1836  8824.17  92.2529
 37.3816  8743.75  92.2074
 37.5796  8773.24  94.1544
 37.7776  8623.47  91.6581
 37.9756  8795.8  92.4411
 38.1736  8770.23  92.5125
 38.3716  8608.95  91.9412
 38.5696  8541.21  91.9783
 38.7676  8309.54  90.2162
 38.9656  8451.87  90.6097
 39.1636  8554.53  91.4043
 39.3616  8580.35  91.505
 39.5596  8325.36  90.985
 39.7576  8387.86  90.7003
 39.9556  8540.16  91.1395
 40.1536  8440.61  90.8133
 40.3516  8482.4  91.0623
 40.5496  8550.6  91.4705
 40.7476  8518.08  91.5179
 40.9456  8465.84  90.9807
 41.1436  8479.28  90.7621
 41.3416  8447.87  90.9437
 41.5396  8251.82  89.6795
 41.7376  8311.86  90.2814
 41.9356  8317.4  90.166
 42.1336  8289.87  90.1627
 42.3316  8202.97  89.9004
 42.5296  8242.05  89.6121
 42.7276  8219.56  89.7385
 42.9256  8124.75  89.0739
 43.1236  8145.47  89.3119
 43.3216  8197.14  89.444
 43.5196  8052.89  88.6139
 43.7176  8048.99  88.993
 43.9156  8113.6  89.2648
 44.1136  8115.22  88.8124
 44.3116  8141.9  88.9709
 44.5096  8155.96  89.368
 44.7076  8107.96  89.0338
 44.9056  7992.47  88.2378
 45.1036  7915.6  87.4288
 45.3016  7878.76  87.75
 45.4996  7798.98  87.2338
 45.6976  7793.38  87.375
 45.8956  7797.34  87.2247
 46.0936  7652.91  86.4108
 46.2916  7660.57  86.4459
 46.4896  7759.56  87.0425
 46.6876  7629.39  87.0339
 46.8856  7729.12  86.8424
 47.0836  7598.72  86.353
 47.2816  7684.05  86.7061
 47.4796  7678.14  86.793
 47.6776  7704.92  87.9161
 47.8756  7610.97  86.5166
 48.0736  7738.59  87.7206
 48.2716  7757.02  87.6335
 48.4696  7607.36  86.3744
 48.6676  7723.8  87.6418
 48.8656  7811.12  87.856
 49.0636  7569.2  86.4227
 49.2616  7568.71  86.4516
 49.4596  7588.86  86.1272
 49.6576  7575.37  86.2878
 49.8556  7658.07  86.746
 50.0536  7626.17  87.0558
 50.2516  7533.81  86.6297
 50.4496  7628.64  86.8323
 50.6476  7563.58  86.1306
 50.8456  7491.46  85.8344
 51.0436  7684.65  87.3966
 51.2416  7466.89  85.798
 51.4396  7423.72  85.9773
 51.6376  7578.7  86.6849
 51.8356  7604.99  86.4412
 52.0336  7181.25  84.5061
 52.2316  7206.18  85.0121
 52.4296  7494.44  86.3578
 52.6276  7289.49  85.3056
 52.8256  7318.39  84.9845
 53.0236  7218.04  85.1055
 53.2216  7215.02  85.1135
 53.4196  7192.1  84.914
 53.6176  7131.98  85.0622
 53.8156  7211.23  85.1855
 54.0136  7292.69  85.846
 54.2116  7195.34  84.9141
 54.4096  7268.41  85.4092
 54.6076  7101.58  84.7882
 54.8056  7048.95  84.2461
 55.0036  7081.63  84.8508
 55.2016  7086.63  84.3983
 55.3996  7150.79  84.7554
 55.5976  7111.4  84.7182
 55.7956  7073.16  84.2921
 55.9936  7010.24  84.0556
 56.1916  7118.77  84.7292
 56.3896  7140.94  84.8592
 56.5876  6985.77  84.5057
 56.7856  7021.9  84.1769
 56.9836  7036  84.0241
 57.1816  6988.03  84.1376
 57.3796  7133.46  84.8052
 57.5776  7053.93  84.2574
 57.7756  7037.03  84.8223
 57.9736  6978.78  84.1376
 58.1716  6952.93  84.2313
 58.3696  7008.65  84.3175
 58.5676  7053.17  84.0095
 58.7656  7103.74  85.0461
 58.9636  7147.71  85.3399
 59.1616  7101.01  85.2046
 59.3596  7145.45  84.66
 59.5576  7240.16  85.281
 59.7556  6889.26  83.6355
 59.9536  7159.84  85.152
 60.1516  7117.07  85.8186
 60.1996  0.0000000E+00  0.0000000E+00